Frequency (Hz),Amplitude (dBm)
100000,-58.35
101000,-59
102000,-57.75
103000,-58.75
104000,-59.16
105000,-60.45
106000,-58.43
107000,-60.95
108000,-61.34
109000,-61.74
110000,-61.75
111000,-62.28
112000,-62.01
113000,-62.89
114000,-60
115000,-62.91
116000,-62.77
117000,-62.14
118000,-62.95
119000,-62.96
120000,-63.27
121000,-63.93
122000,-63.61
123000,-63.96
124000,-63.09
125000,-63.49
126000,-63.19
127000,-62.9
128000,-63.85
129000,-63.94
130000,-63.01
131000,-63.32
132000,-63.73
133000,-60.9
134000,-63.52
135000,-65.65
136000,-65.18
137000,-64.38
138000,-65.69
139000,-65.51
140000,-63.43
141000,-63.6
142000,-65.45
143000,-64.11
144000,-64.72
145000,-64.39
146000,-65.2
147000,-65.41
148000,-65.14
149000,-65.34
150000,-66.14
151000,-66.69
152000,-65.28
153000,-64.93
154000,-65.4
155000,-66.41
156000,-64.78
157000,-64.97
158000,-65.44
159000,-66.89
160000,-65.66
161000,-67.03
162000,-64.68
163000,-66.1
164000,-65.71
165000,-65.92
166000,-66.03
167000,-66.45
168000,-67.35
169000,-66.26
170000,-65.88
171000,-66.82
172000,-65.43
173000,-68.01
174000,-64.99
175000,-64.75
176000,-66.99
177000,-67.11
178000,-67.35
179000,-67.13
180000,-67.49
181000,-65.82
182000,-67.28
183000,-68.13
184000,-68.66
185000,-67.55
186000,-67.45
187000,-67.01
188000,-65.52
189000,-67.96
190000,-66.73
191000,-66.63
192000,-66.75
193000,-66.66
194000,-64.98
195000,-64.25
196000,-62.78
197000,-62.28
198000,-62.17
199000,-61.58
200000,-60.93
201000,-61.83
202000,-62.32
203000,-62.45
204000,-63.37
205000,-63.44
206000,-67.31
207000,-67.65
208000,-68.13
209000,-67.9
210000,-68.26
211000,-69.5
212000,-68.78
213000,-68.91
214000,-70.24
215000,-68.17
216000,-69.66
217000,-69.6
218000,-69.46
219000,-69.68
220000,-69.47
221000,-70.67
222000,-68.32
223000,-70.29
224000,-68.84
225000,-69.28
226000,-69.5
227000,-68.98
228000,-68.99
229000,-69.59
230000,-70.4
231000,-69.14
232000,-70.18
233000,-70.9
234000,-69.97
235000,-70.2
236000,-69.98
237000,-69.77
238000,-69.17
239000,-69.56
240000,-70.3
241000,-68.06
242000,-71.81
243000,-70.78
244000,-70.32
245000,-70.18
246000,-70.8
247000,-70.65
248000,-70.65
249000,-71.15
250000,-70.58
251000,-71.16
252000,-70.59
253000,-69.71
254000,-70.52
255000,-71.26
256000,-71.1
257000,-69.27
258000,-70.39
259000,-70.94
260000,-69.81
261000,-69.67
262000,-71.64
263000,-71.55
264000,-70.42
265000,-69.48
266000,-69.84
267000,-71.41
268000,-70.06
269000,-72.41
270000,-72.32
271000,-71.17
272000,-70.38
273000,-72.53
274000,-70.78
275000,-71.02
276000,-70.33
277000,-70.87
278000,-71.55
279000,-70.96
280000,-71.38
281000,-71.82
282000,-69.92
283000,-70.37
284000,-71.07
285000,-70.38
286000,-69.02
287000,-70.09
288000,-69.88
289000,-68.78
290000,-67.73
291000,-65.25
292000,-62.53
293000,-59.66
294000,-56.28
295000,-53.82
296000,-51.64
297000,-49.8
298000,-48.37
299000,-47.64
300000,-47.31
301000,-47.64
302000,-48.38
303000,-49.71
304000,-51.59
305000,-53.94
306000,-56.91
307000,-60.05
308000,-62.21
309000,-65.55
310000,-68
311000,-69.09
312000,-70.22
313000,-69.73
314000,-71.07
315000,-71.07
316000,-72.47
317000,-70.67
318000,-72.01
319000,-72.86
320000,-72.37
321000,-72.66
322000,-73.48
323000,-73.26
324000,-73.58
325000,-73.16
326000,-72.37
327000,-71.57
328000,-72.86
329000,-73.06
330000,-74.61
331000,-70.15
332000,-71.74
333000,-73.26
334000,-73.58
335000,-73.91
336000,-71.92
337000,-73.69
338000,-74.14
339000,-72.66
340000,-73.69
341000,-72.37
342000,-72.76
343000,-74.25
344000,-74.02
345000,-74.86
346000,-71.24
347000,-72.29
348000,-74.61
349000,-74.02
350000,-73.69
351000,-73.69
352000,-73.8
353000,-71.57
354000,-73.8
355000,-72.19
356000,-75.37
357000,-75.12
358000,-73.91
359000,-74.61
360000,-75.12
361000,-74.49
362000,-74.74
363000,-74.98
364000,-74.14
365000,-74.38
366000,-73.69
367000,-75.68
368000,-75.24
369000,-73.91
370000,-73.58
371000,-74.02
372000,-74.74
373000,-75.37
374000,-73.8
375000,-75.82
376000,-74.14
377000,-75.24
378000,-74.14
379000,-74.83
380000,-73.77
381000,-73.87
382000,-74.95
383000,-73.13
384000,-74.46
385000,-75.34
386000,-75.08
387000,-74.22
388000,-73.87
389000,-75.08
390000,-74.1
391000,-72.73
392000,-74.1
393000,-74.34
394000,-71.71
395000,-72.63
396000,-71.28
397000,-69.91
398000,-69.45
399000,-69.06
400000,-69.62
401000,-69.06
402000,-70.05
403000,-70.49
404000,-71.45
405000,-72.25
406000,-72.25
407000,-73.23
408000,-73.77
409000,-73.55
410000,-74.95
411000,-75.47
412000,-74.58
413000,-74.1
414000,-74.22
415000,-76
416000,-75.79
417000,-75.08
418000,-76.74
419000,-75.47
420000,-74.58
421000,-75.47
422000,-75.34
423000,-76.9
424000,-74.83
425000,-75.21
426000,-75.93
427000,-76.29
428000,-75.21
429000,-74.58
430000,-75.65
431000,-75.08
432000,-76.36
433000,-76.21
434000,-75.47
435000,-74.83
436000,-75.58
437000,-74.95
438000,-75.47
439000,-76.29
440000,-76.29
441000,-75.08
442000,-74.95
443000,-75.86
444000,-75.93
445000,-74.95
446000,-76.9
447000,-75.72
448000,-75.34
449000,-74.74
450000,-75.5
451000,-76.1
452000,-75.24
453000,-74.49
454000,-76.47
455000,-75.24
456000,-76.47
457000,-75.68
458000,-74.74
459000,-74.37
460000,-75.68
461000,-77.43
462000,-75.24
463000,-76.17
464000,-76.54
465000,-75.96
466000,-76.47
467000,-74.74
468000,-76.39
469000,-77.01
470000,-76.32
471000,-77.26
472000,-73.69
473000,-75.96
474000,-76.77
475000,-73.69
476000,-76.47
477000,-75.68
478000,-76.39
479000,-76.85
480000,-74.37
481000,-76.77
482000,-76.69
483000,-74.61
484000,-75.12
485000,-74.25
486000,-76.24
487000,-75.5
488000,-75.68
489000,-74.02
490000,-74.61
491000,-76.85
492000,-75.75
493000,-75.89
494000,-75.68
495000,-75.37
496000,-74.74
497000,-76.77
498000,-75.12
499000,-75.24
500000,-67.78
501000,-75.82
502000,-75.24
503000,-76.1
504000,-75.24
505000,-75.5
506000,-76.03
507000,-76.85
508000,-76.69
509000,-75.96
510000,-76.54
511000,-77.09
512000,-77.09
513000,-77.51
514000,-77.85
515000,-77.01
516000,-74.49
517000,-75.37
518000,-76.17
519000,-77.09
520000,-76.17
521000,-76.69
522000,-76.85
523000,-75.37
524000,-76.77
525000,-77.09
526000,-77.34
527000,-76.24
528000,-75.96
529000,-76.69
530000,-75.5
531000,-73.8
532000,-76.39
533000,-76.69
534000,-77.43
535000,-75.37
536000,-75.75
537000,-77.01
538000,-76.24
539000,-77.17
540000,-75.5
541000,-75.68
542000,-75.89
543000,-76.17
544000,-76.77
545000,-76.62
546000,-76.85
547000,-75.68
548000,-76.24
549000,-75.11
550000,-77.59
551000,-74.98
552000,-75.68
553000,-76.62
554000,-75.24
555000,-77.01
556000,-74.74
557000,-77.85
558000,-77.34
559000,-77.5
560000,-77.17
561000,-77.09
562000,-76.54
563000,-77.01
564000,-77.43
565000,-76.77
566000,-76.69
567000,-76.85
568000,-76.03
569000,-75.68
570000,-76.39
571000,-76.1
572000,-77.09
573000,-77.85
574000,-76.69
575000,-76.39
576000,-76.93
577000,-74.74
578000,-76.77
579000,-75.68
580000,-75.89
581000,-77.01
582000,-74.86
583000,-76.47
584000,-76.85
585000,-76.85
586000,-77.5
587000,-76.69
588000,-76.85
589000,-75.68
590000,-77.01
591000,-77.01
592000,-74.86
593000,-77.17
594000,-76.93
595000,-77.01
596000,-77.26
597000,-77.5
598000,-76.62
599000,-76.69
600000,-75.24
601000,-74.74
602000,-75.82
603000,-76.24
604000,-76.24
605000,-76.77
606000,-75.5
607000,-76.32
608000,-75.82
609000,-76.24
610000,-76.39
611000,-77.34
612000,-77.85
613000,-75.68
614000,-77.09
615000,-77.17
616000,-76.17
617000,-76.1
618000,-77.34
619000,-77.09
620000,-76.54
621000,-77.17
622000,-76.54
623000,-77.42
624000,-77.85
625000,-76.85
626000,-77.17
627000,-77.68
628000,-77.76
629000,-76.69
630000,-78.4
631000,-78.59
632000,-77.5
633000,-78.21
634000,-76.03
635000,-78.12
636000,-76.39
637000,-76.77
638000,-76.39
639000,-78.03
640000,-76.69
641000,-76.93
642000,-77.42
643000,-76.24
644000,-75.89
645000,-76.69
646000,-76.85
647000,-77.5
648000,-77.01
649000,-77.26
650000,-77.68
651000,-77.09
652000,-75.3
653000,-77.1
654000,-77.27
655000,-77.69
656000,-77.69
657000,-76.71
658000,-77.1
659000,-78.72
660000,-77.61
661000,-78.05
662000,-77.19
663000,-76.18
664000,-77.78
665000,-76.48
666000,-75.61
667000,-77.53
668000,-77.53
669000,-77.27
670000,-77.44
671000,-77.27
672000,-78.72
673000,-76.41
674000,-78.52
675000,-78.72
676000,-78.52
677000,-76.48
678000,-76.71
679000,-76.71
680000,-79.02
681000,-79.02
682000,-77.02
683000,-77.78
684000,-77.97
685000,-77.1
686000,-77.53
687000,-77.02
688000,-78.24
689000,-77.44
690000,-78.81
691000,-77.53
692000,-77.27
693000,-77.87
694000,-77.69
695000,-78.33
696000,-74.18
697000,-77.36
698000,-76.63
699000,-75.05
700000,-76.26
701000,-75.3
702000,-76.48
703000,-77.1
704000,-77.87
705000,-77.53
706000,-79.02
707000,-78.91
708000,-78.14
709000,-77.97
710000,-78.52
711000,-78.14
712000,-77.97
713000,-79.43
714000,-78.72
715000,-77.61
716000,-78.05
717000,-78.05
718000,-79.11
719000,-78.78
720000,-79.71
721000,-77.59
722000,-78.03
723000,-77.68
724000,-78.59
725000,-78.03
726000,-77.26
727000,-77.59
728000,-78.59
729000,-78.21
730000,-78.69
731000,-78.21
732000,-78.21
733000,-79.6
734000,-78.21
735000,-78.78
736000,-79.93
737000,-79.82
738000,-80.88
739000,-79.82
740000,-79.6
741000,-78.78
742000,-79.39
743000,-77.34
744000,-78.78
745000,-79.93
746000,-79.6
747000,-77.34
748000,-78.78
749000,-79.5
750000,-80.27
751000,-79.39
752000,-78.03
753000,-78.98
754000,-77.68
755000,-78.03
756000,-79.39
757000,-78.98
758000,-80.63
759000,-79.18
760000,-79.39
761000,-80.04
762000,-79.18
763000,-76.77
764000,-79.93
765000,-79.71
766000,-79.18
767000,-80.4
768000,-80.27
769000,-80.04
770000,-79.28
771000,-79.71
772000,-80.04
773000,-78.59
774000,-79.18
775000,-78.78
776000,-78.78
777000,-79.6
778000,-78.31
779000,-80.04
780000,-78.98
781000,-81.26
782000,-79.82
783000,-79.39
784000,-80.04
785000,-79.6
786000,-79.6
787000,-79.5
788000,-80.81
789000,-79.01
790000,-77.87
791000,-79.54
792000,-78.91
793000,-78.91
794000,-79.76
795000,-77.78
796000,-76.48
797000,-78.91
798000,-76.86
799000,-78.24
800000,-77.97
801000,-78.72
802000,-77.1
803000,-78.62
804000,-78.33
805000,-78.05
806000,-79.54
807000,-78.91
808000,-80.69
809000,-79.54
810000,-79.54
811000,-79.32
812000,-79.64
813000,-78.33
814000,-78.33
815000,-80.57
816000,-79.64
817000,-79.43
818000,-80.09
819000,-78.14
820000,-79.54
821000,-81.63
822000,-80.21
823000,-77.97
824000,-78.71
825000,-79.54
826000,-81.19
827000,-80.09
828000,-79.54
829000,-78.05
830000,-79.98
831000,-79.32
832000,-80.21
833000,-80.21
834000,-80.44
835000,-80.21
836000,-79.76
837000,-80.94
838000,-79.43
839000,-79.53
840000,-80.94
841000,-78.52
842000,-79.32
843000,-79.32
844000,-79.01
845000,-79.32
846000,-78.71
847000,-80.57
848000,-81.07
849000,-80.57
850000,-80.21
851000,-80.21
852000,-80.94
853000,-79.32
854000,-80.09
855000,-79.76
856000,-79.71
857000,-79.39
858000,-78.21
859000,-80.04
860000,-79.39
861000,-80.51
862000,-79.39
863000,-80.51
864000,-80.51
865000,-79.82
866000,-81
867000,-79.82
868000,-79.93
869000,-78.98
870000,-79.93
871000,-80.76
872000,-81.7
873000,-80.27
874000,-79.82
875000,-77.5
876000,-80.27
877000,-81.39
878000,-80.63
879000,-80.04
880000,-81.52
881000,-81.26
882000,-79.82
883000,-81.26
884000,-79.18
885000,-80.04
886000,-81
887000,-81.14
888000,-81.52
889000,-80.63
890000,-80.16
891000,-80.63
892000,-80.63
893000,-79.82
894000,-79.93
895000,-79.39
896000,-78.78
897000,-79.6
898000,-78.97
899000,-77.01
900000,-78.78
901000,-77.09
902000,-78.21
903000,-78.49
904000,-78.49
905000,-80.04
906000,-80.88
907000,-79.28
908000,-81
909000,-80.51
910000,-81.39
911000,-81
912000,-80.88
913000,-81.26
914000,-81
915000,-79.71
916000,-81.39
917000,-80.04
918000,-81
919000,-79.5
920000,-80.76
921000,-81.52
922000,-80.76
923000,-80.51
924000,-78.94
925000,-81.23
926000,-79.46
927000,-79.89
928000,-80.72
929000,-78.75
930000,-81.74
931000,-81.95
932000,-80.97
933000,-81.36
934000,-80.72
935000,-81.95
936000,-80.48
937000,-80.24
938000,-80.24
939000,-82.53
940000,-80.48
941000,-80.85
942000,-79.79
943000,-80.85
944000,-81.23
945000,-80.48
946000,-80.72
947000,-78.55
948000,-80.01
949000,-80.97
950000,-80.24
951000,-81.36
952000,-80.01
953000,-80.6
954000,-80.36
955000,-80.6
956000,-80.72
957000,-81.67
958000,-80.97
959000,-79.79
960000,-80.72
961000,-80.48
962000,-80.48
963000,-80.72
964000,-80.72
965000,-80.48
966000,-81.23
967000,-80.72
968000,-80.48
969000,-79.79
970000,-79.89
971000,-80.72
972000,-79.36
973000,-81.74
974000,-81.36
975000,-81.81
976000,-80.72
977000,-82.02
978000,-81.67
979000,-82.61
980000,-81.81
981000,-81.74
982000,-81.49
983000,-80.48
984000,-80.72
985000,-82.02
986000,-81.1
987000,-81.1
988000,-81.23
989000,-80.85
990000,-81.81
991000,-80.01
992000,-79.79
993000,-81.36
994000,-80.24
995000,-79.57
996000,-77.47
997000,-77.64
998000,-78.94
999000,-78.36
1000000,-77.64
1001000,-77.81
1002000,-77.39
1003000,-79.25
1004000,-79.36
1005000,-80.24
1006000,-80.12
1007000,-81.95
1008000,-81.95
1009000,-82.23
1010000,-82.02
1011000,-82.09
1012000,-80.48
1013000,-81.67
1014000,-82.31
1015000,-80.36
1016000,-82.38
1017000,-81.1
1018000,-80.12
1019000,-82.31
1020000,-80.24
1021000,-81.74
1022000,-81.1
1023000,-81.49
1024000,-79.89
1025000,-81.22
1026000,-80.97
1027000,-82.31
1028000,-80.72
1029000,-81.49
1030000,-82.31
1031000,-82.68
1032000,-80.85
1033000,-81.95
1034000,-80.97
1035000,-81.1
1036000,-79.57
1037000,-81.49
1038000,-81.95
1039000,-80.48
1040000,-79.14
1041000,-81.81
1042000,-80.97
1043000,-81.74
1044000,-81.67
1045000,-80.97
1046000,-82.53
1047000,-81.81
1048000,-79.57
1049000,-80.47
1050000,-81.89
1051000,-80.67
1052000,-81.17
1053000,-82.78
1054000,-81.89
1055000,-81.04
1056000,-81.43
1057000,-81.96
1058000,-81.17
1059000,-81.61
1060000,-81.75
1061000,-82.25
1062000,-81.17
1063000,-81.75
1064000,-81.89
1065000,-80.54
1066000,-81.68
1067000,-82.17
1068000,-80.42
1069000,-80.91
1070000,-80.67
1071000,-82.86
1072000,-82.03
1073000,-82.03
1074000,-80.42
1075000,-81.43
1076000,-80.67
1077000,-81.96
1078000,-79.51
1079000,-80.91
1080000,-80.42
1081000,-81.89
1082000,-81.89
1083000,-80.91
1084000,-83.1
1085000,-82.32
1086000,-80.91
1087000,-82.55
1088000,-82.55
1089000,-81.43
1090000,-80.91
1091000,-81.96
1092000,-80.66
1093000,-81.43
1094000,-80.91
1095000,-79.73
1096000,-79.84
1097000,-79.62
1098000,-78.99
1099000,-78.12
1100000,-79.95
1101000,-79.19
1102000,-79.73
1103000,-79.19
1104000,-79.51
1105000,-79.73
1106000,-81.17
1107000,-82.94
1108000,-82.94
1109000,-82.78
1110000,-80.54
1111000,-81.75
1112000,-82.17
1113000,-81.17
1114000,-81.96
1115000,-82.86
1116000,-81.61
1117000,-80.79
1118000,-81.43
1119000,-81.96
1120000,-81.17
1121000,-82.86
1122000,-82.62
1123000,-81.96
1124000,-80.54
1125000,-83.52
1126000,-81.68
1127000,-82.17
1128000,-82.47
1129000,-81.43
1130000,-81.3
1131000,-81.17
1132000,-82.03
1133000,-83.43
1134000,-81.75
1135000,-81.43
1136000,-80.3
1137000,-80.66
1138000,-82.62
1139000,-83.1
1140000,-82.25
1141000,-82.55
1142000,-81.89
1143000,-83.19
1144000,-82.17
1145000,-81.68
1146000,-83.1
1147000,-81.43
1148000,-82.25
1149000,-83.52
1150000,-82.86
1151000,-83.52
1152000,-82.32
1153000,-79.73
1154000,-82.78
1155000,-81.68
1156000,-80.91
1157000,-82.32
1158000,-82.32
1159000,-82.03
1160000,-81.89
1161000,-79.3
1162000,-83.43
1163000,-82.25
1164000,-82.62
1165000,-82.03
1166000,-80.42
1167000,-82.17
1168000,-82.47
1169000,-79.73
1170000,-82.25
1171000,-82.55
1172000,-80.91
1173000,-81.17
1174000,-82.47
1175000,-81.75
1176000,-81.96
1177000,-82.03
1178000,-81.61
1179000,-82.03
1180000,-82.94
1181000,-82.62
1182000,-80.42
1183000,-81.3
1184000,-82.94
1185000,-81.61
1186000,-82.32
1187000,-81.68
1188000,-80.18
1189000,-81.17
1190000,-82.47
1191000,-82.62
1192000,-82.47
1193000,-81.68
1194000,-81.17
1195000,-80.34
1196000,-80.7
1197000,-79.98
1198000,-78.25
1199000,-77.28
1200000,-78.72
1201000,-78.15
1202000,-79.33
1203000,-80.34
1204000,-80.34
1205000,-81.2
1206000,-81.92
1207000,-81.99
1208000,-82.81
1209000,-81.33
1210000,-81.08
1211000,-82.58
1212000,-80.7
1213000,-82.89
1214000,-82.36
1215000,-83.22
1216000,-82.89
1217000,-82.58
1218000,-82.89
1219000,-82.97
1220000,-83.55
1221000,-82.28
1222000,-82.28
1223000,-79.98
1224000,-83.47
1225000,-82.06
1226000,-82.97
1227000,-82.58
1228000,-83.22
1229000,-82.51
1230000,-81.92
1231000,-79.76
1232000,-84.17
1233000,-84
1234000,-81.99
1235000,-82.21
1236000,-82.81
1237000,-81.92
1238000,-82.65
1239000,-82.28
1240000,-81.92
1241000,-83.22
1242000,-83.22
1243000,-81.64
1244000,-82.36
1245000,-83.47
1246000,-82.97
1247000,-82.35
1248000,-82.58
1249000,-82.81
1250000,-81.71
1251000,-80.94
1252000,-81.99
1253000,-83.55
1254000,-82.5
1255000,-80.34
1256000,-82.58
1257000,-83.47
1258000,-83.55
1259000,-83.64
1260000,-82.5
1261000,-82.28
1262000,-82.28
1263000,-82.35
1264000,-83.3
1265000,-80.94
1266000,-83.64
1267000,-83.47
1268000,-82.06
1269000,-81.2
1270000,-82.58
1271000,-82.89
1272000,-82.2
1273000,-81.46
1274000,-82.28
1275000,-83.3
1276000,-82.65
1277000,-81.46
1278000,-82.5
1279000,-82.81
1280000,-82.97
1281000,-81.33
1282000,-82.97
1283000,-82.2
1284000,-83.47
1285000,-82.35
1286000,-79.98
1287000,-80.1
1288000,-82.58
1289000,-81.99
1290000,-83.81
1291000,-81.92
1292000,-83.22
1293000,-82.65
1294000,-81.64
1295000,-81.46
1296000,-79.65
1297000,-78.43
1298000,-79.65
1299000,-78.72
1300000,-79.44
1301000,-79.54
1302000,-80.45
1303000,-80.21
1304000,-80.33
1305000,-81.71
1306000,-81.64
1307000,-82.97
1308000,-82.89
1309000,-82.58
1310000,-83.13
1311000,-82.5
1312000,-82.35
1313000,-83.22
1314000,-83.55
1315000,-84.55
1316000,-82.06
1317000,-83.55
1318000,-83.22
1319000,-82.97
1320000,-83.13
1321000,-81.46
1322000,-81.92
1323000,-82.89
1324000,-82.97
1325000,-83.47
1326000,-83.22
1327000,-81.78
1328000,-83.47
1329000,-82.65
1330000,-83.26
1331000,-83.19
1332000,-83.52
1333000,-83.61
1334000,-82.86
1335000,-83.61
1336000,-82.62
1337000,-83.26
1338000,-82.32
1339000,-81.43
1340000,-80.42
1341000,-81.43
1342000,-82.94
1343000,-82.47
1344000,-82.62
1345000,-82.47
1346000,-82.55
1347000,-82.86
1348000,-82.78
1349000,-82.47
1350000,-83.61
1351000,-82.32
1352000,-82.25
1353000,-82.25
1354000,-83.61
1355000,-82.94
1356000,-82.78
1357000,-81.68
1358000,-83.19
1359000,-82.94
1360000,-83.61
1361000,-84.52
1362000,-82.17
1363000,-81.75
1364000,-82.62
1365000,-83.26
1366000,-81.75
1367000,-82.32
1368000,-82.47
1369000,-81.43
1370000,-83.26
1371000,-82.17
1372000,-84.23
1373000,-81.17
1374000,-83.1
1375000,-82.62
1376000,-83.52
1377000,-81.68
1378000,-82.62
1379000,-81.43
1380000,-80.18
1381000,-81.43
1382000,-83.96
1383000,-82.94
1384000,-83.18
1385000,-83.61
1386000,-83.18
1387000,-82.86
1388000,-83.26
1389000,-80.91
1390000,-84.23
1391000,-81.43
1392000,-82.25
1393000,-82.55
1394000,-81.89
1395000,-80.66
1396000,-80.79
1397000,-79.33
1398000,-80.21
1399000,-78.53
1400000,-78.82
1401000,-78.91
1402000,-79.12
1403000,-80.1
1404000,-79.54
1405000,-79.54
1406000,-81.71
1407000,-82.35
1408000,-83.3
1409000,-82.28
1410000,-81.64
1411000,-82.28
1412000,-83.3
1413000,-83.3
1414000,-83.99
1415000,-84.36
1416000,-83.64
1417000,-83.46
1418000,-81.64
1419000,-82.2
1420000,-82.81
1421000,-83.64
1422000,-80.94
1423000,-84.65
1424000,-83.81
1425000,-82.81
1426000,-82.35
1427000,-82.65
1428000,-81.2
1429000,-81.64
1430000,-82.81
1431000,-82.5
1432000,-83.22
1433000,-83.13
1434000,-83.13
1435000,-81.99
1436000,-83.46
1437000,-81.2
1438000,-83.3
1439000,-83.46
1440000,-83.99
1441000,-83.22
1442000,-81.99
1443000,-82.28
1444000,-83.64
1445000,-81.64
1446000,-81.64
1447000,-84.17
1448000,-82.58
1449000,-83.3
1450000,-83.22
1451000,-82.81
1452000,-83.13
1453000,-82.89
1454000,-81.71
1455000,-83.22
1456000,-82.06
1457000,-82.97
1458000,-82.35
1459000,-83.46
1460000,-83.46
1461000,-84.65
1462000,-81.78
1463000,-84.23
1464000,-83.61
1465000,-82.94
1466000,-82.94
1467000,-83.26
1468000,-84.9
1469000,-84.23
1470000,-82.47
1471000,-84.14
1472000,-83.43
1473000,-83.1
1474000,-82.55
1475000,-85.11
1476000,-83.61
1477000,-82.86
1478000,-82.86
1479000,-82.62
1480000,-81.43
1481000,-83.1
1482000,-82.94
1483000,-84.14
1484000,-83.52
1485000,-81.96
1486000,-83.86
1487000,-82.03
1488000,-83.43
1489000,-82.62
1490000,-83.77
1491000,-82.55
1492000,-82.25
1493000,-82.55
1494000,-80.91
1495000,-81.16
1496000,-80.91
1497000,-79.51
1498000,-79.61
1499000,-79.51
