Frequency (Hz),Amplitude (dBm)
5000000,-50.79
5009000,-70.12
5018000,-84.51
5027000,-90.16
5036000,-90.89
5045000,-89.54
5054000,-89.66
5063000,-91.7
5072000,-90.89
5081000,-89.91
5090000,-90.6
5099000,-91.78
5108000,-92.09
5117000,-91.32
5126000,-91.7
5135000,-91.03
5144000,-92.18
5153000,-91.78
5162000,-90.04
5171000,-90.16
5180000,-91.32
5189000,-91.62
5198000,-91.85
5207000,-91.7
5216000,-90.53
5225000,-91.03
5234000,-89.66
5243000,-88.72
5252000,-91.62
5261000,-90.74
5270000,-89.06
5279000,-91.02
5288000,-90.43
5297000,-90.71
5306000,-90.78
5315000,-89.94
5324000,-91.35
5333000,-91.5
5342000,-90.33
5351000,-90.78
5360000,-90.46
5369000,-91.65
5378000,-90.33
5387000,-89.69
5396000,-92.38
5405000,-91.81
5414000,-91.73
5423000,-91.06
5432000,-91.81
5441000,-92.46
5450000,-90.56
5459000,-90.56
5468000,-90.32
5477000,-91.81
5486000,-89.57
5495000,-91.96
5504000,-90.56
5513000,-92.12
5522000,-92.38
5531000,-91.43
5540000,-90.07
5549000,-90.07
5558000,-89.94
5567000,-92.55
5576000,-91.65
5585000,-93.16
5594000,-92.04
5603000,-90.63
5612000,-90.19
5621000,-90.91
5630000,-92.04
5639000,-92.29
5648000,-90.63
5657000,-91.43
5666000,-90.77
5675000,-91.8
5684000,-91.65
5693000,-90.91
5702000,-91.35
5711000,-90.91
5720000,-92.12
5729000,-91.2
5738000,-90.19
5747000,-90.07
5756000,-91.96
5765000,-89.93
5774000,-90.98
5783000,-90.7
5792000,-91.2
5801000,-90.32
5810000,-91.96
5819000,-90.77
5828000,-90.63
5837000,-91.88
5846000,-90.32
5855000,-92.54
5864000,-91.64
5873000,-89.69
5882000,-91.02
5891000,-91.39
5900000,-90.88
5909000,-90.53
5918000,-92.77
5927000,-91.31
5936000,-91.16
5945000,-90.95
5954000,-91.02
5963000,-90.95
5972000,-91.69
5981000,-89.65
5990000,-91.54
5999000,-91.93
6008000,-92.25
6017000,-90.6
6026000,-92.95
6035000,-90.74
6044000,-92.6
6053000,-90.15
6062000,-90.74
6071000,-92.09
6080000,-90.74
6089000,-91.93
6098000,-91.85
6107000,-91.31
6116000,-92.34
6125000,-92.25
6134000,-91.31
6143000,-90.42
6152000,-91.02
6161000,-90.15
6170000,-91.69
6179000,-89.17
6188000,-90.74
6197000,-92.34
6206000,-90.95
6215000,-90.74
6224000,-89.9
6233000,-91.31
6242000,-90.66
6251000,-91.24
6260000,-91.16
6269000,-91.54
6278000,-91.16
6287000,-90.95
6296000,-92.08
6305000,-92.08
6314000,-91.02
6323000,-91.46
6332000,-91.61
6341000,-92.67
6350000,-91.16
6359000,-91.85
6368000,-91.85
6377000,-91.24
6386000,-92.25
6395000,-91.69
6404000,-91.77
6413000,-92.42
6422000,-90.87
6431000,-91.46
6440000,-91.92
6449000,-90.52
6458000,-91.24
6467000,-93.41
6476000,-91.92
6485000,-92.59
6494000,-91.84
6503000,-91.92
6512000,-90.87
6521000,-90.59
6530000,-92.08
6539000,-91.31
6548000,-91.84
6557000,-92.59
6566000,-92.25
6575000,-92.34
6584000,-92.34
6593000,-91.84
6602000,-92.17
6611000,-91.76
6620000,-91.23
6629000,-90.87
6638000,-91.45
6647000,-92.5
6656000,-91.76
6665000,-89.29
6674000,-90.03
6683000,-92.25
6692000,-90.59
6701000,-90.94
6710000,-91.3
6719000,-92
6728000,-91.84
6737000,-90.28
6746000,-90.03
6755000,-91.6
6764000,-91.45
6773000,-90.87
6782000,-91.15
6791000,-92.59
6800000,-90.41
6809000,-90.52
6818000,-90.94
6827000,-91.01
6836000,-91.01
6845000,-91.15
6854000,-92.25
6863000,-92.41
6872000,-93.31
6881000,-91.92
6890000,-91.23
6899000,-91.15
6908000,-91.3
6917000,-91.15
6926000,-92
6935000,-92.08
6944000,-92.41
6953000,-91.6
6962000,-91.76
6971000,-92.59
6980000,-92
6989000,-91.01
6998000,-92.59
7007000,-92
7016000,-92.76
7025000,-92.5
7034000,-92.41
7043000,-88.93
7052000,-92.25
7061000,-90.11
7070000,-93.08
7079000,-92.21
7088000,-92.56
7097000,-90.69
7106000,-92.04
7115000,-91.57
7124000,-92.91
7133000,-91.2
7142000,-90.69
7151000,-91.57
7160000,-91.2
7169000,-91.81
7178000,-89.73
7187000,-91.96
7196000,-91.96
7205000,-91.65
7214000,-92.21
7223000,-91.65
7232000,-92.72
7241000,-91.12
7250000,-91.73
7259000,-92.21
7268000,-91.96
7277000,-91.2
7286000,-91.42
7295000,-91.27
7304000,-91.8
7313000,-89.73
7322000,-91.27
7331000,-92.13
7340000,-91.42
7349000,-91.96
7358000,-91.42
7367000,-92.21
7376000,-90.37
7385000,-91.72
7394000,-92.81
7403000,-92.63
7412000,-91.72
7421000,-91.12
7430000,-91.57
7439000,-90.24
7448000,-90.37
7457000,-92.91
7466000,-91.72
7475000,-91.64
7484000,-91.26
7493000,-92.81
7502000,-92.3
7511000,-92.81
7520000,-90.62
7529000,-91.96
7538000,-92.13
7547000,-91.19
7556000,-91.49
7565000,-90.97
7574000,-91.04
7583000,-90.76
7592000,-92.38
7601000,-92.72
7610000,-92.21
7619000,-90.24
7628000,-91.72
7637000,-91.8
7646000,-92.04
7655000,-92.82
7664000,-89.95
7673000,-90.72
7682000,-93
7691000,-92.73
7700000,-91.98
7709000,-90.47
7718000,-92.91
7727000,-92.47
7736000,-92.31
7745000,-92.31
7754000,-91.98
7763000,-90.34
7772000,-92.47
7781000,-91.98
7790000,-92.47
7799000,-91.44
7808000,-92.82
7817000,-93.18
7826000,-92.14
7835000,-91.51
7844000,-91.59
7853000,-91.9
7862000,-92.73
7871000,-90.65
7880000,-92.14
7889000,-92.9
7898000,-92.73
7907000,-93.56
7916000,-92.56
7925000,-92.82
7934000,-93
7943000,-93.56
7952000,-91.29
7961000,-91.51
7970000,-91.07
7979000,-91.59
7988000,-92.47
7997000,-91.98
8006000,-90.93
8015000,-91.82
8024000,-93
8033000,-93.09
8042000,-90.72
8051000,-92.65
8060000,-92.3
8069000,-91.21
8078000,-91.82
8087000,-92.9
8096000,-92.47
8105000,-91.59
8114000,-92.39
8123000,-92.9
8132000,-92.73
8141000,-92.14
8150000,-90.65
8159000,-93.18
8168000,-91.36
8177000,-91
8186000,-91.66
8195000,-90.93
8204000,-91.9
8213000,-93.36
8222000,-91.44
8231000,-92.75
8240000,-92.58
8249000,-92.16
8258000,-92.75
8267000,-91.37
8276000,-92.75
8285000,-91.91
8294000,-93.29
8303000,-91.75
8312000,-91.14
8321000,-91.59
8330000,-93.29
8339000,-92.07
8348000,-91.75
8357000,-90.58
8366000,-90.58
8375000,-91.91
8384000,-93.11
8393000,-92.49
8402000,-91.99
8411000,-93.29
8420000,-92.4
8429000,-91.37
8438000,-93.29
8447000,-92.75
8456000,-92.15
8465000,-91.59
8474000,-93.29
8483000,-91.75
8492000,-91.29
8501000,-92.4
8510000,-91.83
8519000,-91.52
8528000,-91.37
8537000,-91.37
8546000,-91
8555000,-92.23
8564000,-93.29
8573000,-91.99
8582000,-92.32
8591000,-91.29
8600000,-90.86
8609000,-91.14
8618000,-92.49
8627000,-91.75
8636000,-91.44
8645000,-91.75
8654000,-92.23
8663000,-92.06
8672000,-92.58
8681000,-92.06
8690000,-92.23
8699000,-92.74
8708000,-92.15
8717000,-91.14
8726000,-92.58
8735000,-91.91
8744000,-92.4
8753000,-92.58
8762000,-93.1
8771000,-92.58
8780000,-92.23
8789000,-92.74
8798000,-91.98
8807000,-92.23
8816000,-92.06
8825000,-92.47
8834000,-92.39
8843000,-90.99
8852000,-91.89
8861000,-91.35
8870000,-88.98
8879000,-91.65
8888000,-91.5
8897000,-90.33
8906000,-90.92
8915000,-91.43
8924000,-92.55
8933000,-90.78
8942000,-92.99
8951000,-89.33
8960000,-92.64
8969000,-91.43
8978000,-92.55
8987000,-91.5
8996000,-90.33
9005000,-92.3
9014000,-92.22
9023000,-92.64
9032000,-92.05
9041000,-91.13
9050000,-92.81
9059000,-92.38
9068000,-91.81
9077000,-92.72
9086000,-92.05
9095000,-91.73
9104000,-92.13
9113000,-90.85
9122000,-92.3
9131000,-91.97
9140000,-89.94
9149000,-91.73
9158000,-93.27
9167000,-92.81
9176000,-92.81
9185000,-90.92
9194000,-91.35
9203000,-93.17
9212000,-92.99
9221000,-91.58
9230000,-91.13
9239000,-92.55
9248000,-92.29
9257000,-92.81
9266000,-91.5
9275000,-91.81
9284000,-93.35
9293000,-92.29
9302000,-91.97
9311000,-92.13
9320000,-92.46
9329000,-92.13
9338000,-91.73
9347000,-92.46
9356000,-91.97
9365000,-92.89
9374000,-92.38
9383000,-91.89
9392000,-91.58
9401000,-91.5
9410000,-93.28
9419000,-92.15
9428000,-92.74
9437000,-92.39
9446000,-91.51
9455000,-91.43
9464000,-91.13
9473000,-91.74
9482000,-93.38
9491000,-92.65
9500000,-92.06
9509000,-92.06
9518000,-92.48
9527000,-90
9536000,-92.39
9545000,-90.26
9554000,-92.82
9563000,-92.82
9572000,-92.82
9581000,-93.01
9590000,-89.5
9599000,-92.31
9608000,-91.9
9617000,-91.21
9626000,-93.1
9635000,-93.28
9644000,-91.51
9653000,-92.92
9662000,-92.65
9671000,-92.06
9680000,-93.1
9689000,-90.71
9698000,-91.13
9707000,-91.28
9716000,-91.06
9725000,-91.66
9734000,-91.43
9743000,-92.92
9752000,-92.92
9761000,-91.82
9770000,-92.57
9779000,-92.57
9788000,-92.22
9797000,-91.06
9806000,-92.31
9815000,-93.48
9824000,-92.57
9833000,-92.22
9842000,-92.39
9851000,-91.28
9860000,-93.28
9869000,-91.51
9878000,-92.73
9887000,-92.57
9896000,-92.92
9905000,-91.51
9914000,-90.39
9923000,-92.22
9932000,-90.71
9941000,-91.51
9950000,-91.74
9959000,-92.39
9968000,-92.22
9977000,-88.69
9986000,-81.05
9995000,-58.06
10004000,-56.11
10013000,-77.99
10022000,-86.4
10031000,-91.46
10040000,-92.25
10049000,-91.54
10058000,-90.95
10067000,-93.31
10076000,-92.51
10085000,-92.6
10094000,-92.09
10103000,-91.31
10112000,-90.67
10121000,-91.85
10130000,-92.42
10139000,-91.31
10148000,-90.67
10157000,-93.7
10166000,-93.13
10175000,-91.77
10184000,-90.81
10193000,-93.41
10202000,-93.04
10211000,-92.68
10220000,-91.93
10229000,-91.77
10238000,-92.95
10247000,-90.15
10256000,-92.42
10265000,-90.29
10274000,-90.52
10283000,-91.77
10292000,-93.31
10301000,-91.16
10310000,-92.95
10319000,-92.68
10328000,-92.08
10337000,-91.69
10346000,-92.42
10355000,-93.22
10364000,-92.95
10373000,-92.08
10382000,-90.74
10391000,-90.88
10400000,-91.54
10409000,-92.95
10418000,-91.16
10427000,-90.42
10436000,-90.66
10445000,-92.6
10454000,-93.22
10463000,-92.17
10472000,-92.95
10481000,-92
10490000,-92.6
10499000,-91.85
10508000,-94.09
10517000,-93.41
10526000,-92.67
10535000,-90.73
10544000,-93.31
10553000,-92
10562000,-92.95
10571000,-92.67
10580000,-92.25
10589000,-92
10598000,-91.05
10607000,-91.72
10616000,-91.27
10625000,-91.96
10634000,-93.25
10643000,-92.04
10652000,-92.04
10661000,-92.88
10670000,-93.73
10679000,-91.49
10688000,-91.8
10697000,-91.34
10706000,-92.88
10715000,-91.96
10724000,-92.2
10733000,-91.8
10742000,-92.04
10751000,-92.45
10760000,-93.16
10769000,-92.28
10778000,-90.06
10787000,-91.34
10796000,-92.98
10805000,-91.34
10814000,-91.96
10823000,-91.57
10832000,-92.28
10841000,-91.96
10850000,-90.62
10859000,-93.63
10868000,-93.34
10877000,-92.88
10886000,-92.54
10895000,-93.07
10904000,-91.8
10913000,-92.45
10922000,-91.64
10931000,-93.63
10940000,-91.88
10949000,-92.88
10958000,-92.7
10967000,-92.11
10976000,-92.98
10985000,-90.31
10994000,-92.62
11003000,-93.34
11012000,-92.45
11021000,-93.07
11030000,-92.79
11039000,-92.98
11048000,-92.62
11057000,-91.79
11066000,-91.87
11075000,-91.95
11084000,-90.83
11093000,-89.55
11102000,-93.15
11111000,-91.64
11120000,-93.53
11129000,-92.45
11138000,-91.71
11147000,-92.03
11156000,-91.95
11165000,-92.79
11174000,-91.64
11183000,-92
11192000,-92.5
11201000,-91.3
11210000,-92.17
11219000,-93.12
11228000,-92.59
11237000,-92.84
11246000,-92.76
11255000,-92.84
11264000,-92.67
11273000,-91.76
11282000,-92.17
11291000,-92.17
11300000,-91.3
11309000,-92.94
11318000,-91.3
11327000,-92.76
11336000,-92.59
11345000,-93.21
11354000,-92.59
11363000,-91.23
11372000,-90.73
11381000,-92.41
11390000,-93.4
11399000,-93.69
11408000,-93.5
11417000,-91.76
11426000,-92.76
11435000,-92.94
11444000,-92.24
11453000,-91.53
11462000,-92.59
11471000,-92.41
11480000,-91.68
11489000,-92.75
11498000,-91.6
11507000,-92
11516000,-92.24
11525000,-92.33
11534000,-91.68
11543000,-91.23
11552000,-91.15
11561000,-92.33
11570000,-93.88
11579000,-92.5
11588000,-92.41
11597000,-93.12
11606000,-90.65
11615000,-92
11624000,-91.15
11633000,-90.94
11642000,-91.76
11651000,-91.45
11660000,-92.07
11669000,-93.49
11678000,-91.76
11687000,-92.41
11696000,-93.49
11705000,-93.21
11714000,-92.07
11723000,-93.11
11732000,-93.11
11741000,-92.75
11750000,-92.16
11759000,-92.84
11768000,-91.48
11777000,-91.48
11786000,-93.06
11795000,-91.95
11804000,-91.71
11813000,-92.97
11822000,-91.18
11831000,-92.27
11840000,-92.27
11849000,-92.53
11858000,-91.18
11867000,-92.27
11876000,-92.7
11885000,-91.79
11894000,-91.95
11903000,-92.97
11912000,-91.95
11921000,-92.62
11930000,-92.97
11939000,-91.95
11948000,-92.78
11957000,-92.27
11966000,-90.97
11975000,-92.62
11984000,-93.24
11993000,-93.15
12002000,-91.56
12011000,-93.15
12020000,-91.04
12029000,-91.33
12038000,-93.43
12047000,-91.18
12056000,-91.63
12065000,-91.04
12074000,-92.27
12083000,-93.33
12092000,-92.87
12101000,-92.44
12110000,-93.43
12119000,-90.44
12128000,-91.63
12137000,-92.27
12146000,-91.48
12155000,-92.19
12164000,-90.9
12173000,-92.53
12182000,-92.53
12191000,-92.69
12200000,-90.68
12209000,-92.78
12218000,-92.02
12227000,-93.14
12236000,-92.44
12245000,-93.52
12254000,-93.52
12263000,-92.97
12272000,-92.87
12281000,-89.54
12290000,-93.43
12299000,-91.71
12308000,-91.63
12317000,-92.53
12326000,-92.69
12335000,-92.27
12344000,-92.53
12353000,-92.87
12362000,-92.69
12371000,-94.11
12380000,-92.78
12389000,-92.27
12398000,-91.94
12407000,-92.41
12416000,-93.38
12425000,-92.49
12434000,-92.67
12443000,-92.49
12452000,-91.53
12461000,-92
12470000,-92.49
12479000,-92.58
12488000,-92.75
12497000,-92.16
12506000,-91.68
12515000,-93.2
12524000,-92.32
12533000,-92.16
12542000,-93.2
12551000,-91.38
12560000,-91.92
12569000,-94.17
12578000,-93.2
12587000,-92.49
12596000,-92.49
12605000,-92.52
12614000,-92.61
12623000,-91.62
12632000,-92.69
12641000,-92.78
12650000,-91.32
12659000,-91.47
12668000,-92.02
12677000,-91.17
12686000,-92.52
12695000,-91.78
12704000,-93.81
12713000,-93.32
12722000,-92.52
12731000,-92.27
12740000,-92.1
12749000,-92.69
12758000,-91.32
12767000,-92.43
12776000,-92.35
12785000,-92.96
12794000,-90.75
12803000,-92.19
12812000,-92.69
12821000,-92.87
12830000,-91.25
12839000,-92.52
12848000,-92.78
12857000,-92.96
12866000,-91.1
12875000,-92.69
12884000,-92.96
12893000,-93.24
12902000,-90.04
12911000,-92.02
12920000,-92.61
12929000,-92.26
12938000,-92.96
12947000,-91.78
12956000,-91.95
12965000,-92.62
12974000,-92.37
12983000,-93.45
12992000,-90.36
13001000,-91.79
13010000,-91.33
13019000,-94.25
13028000,-92.29
13037000,-91.71
13046000,-90.96
13055000,-92.89
13064000,-91.4
13073000,-92.89
13082000,-90.54
13091000,-92.71
13100000,-92.2
13109000,-92.45
13118000,-91.55
13127000,-91.95
13136000,-91.4
13145000,-92.62
13154000,-93.25
13163000,-91.55
13172000,-91.48
13181000,-91.71
13190000,-92.12
13199000,-92.45
13208000,-90.47
13217000,-92.36
13226000,-92.71
13235000,-92.89
13244000,-91.63
13253000,-92.28
13262000,-92.45
13271000,-91.71
13280000,-93.74
13289000,-92.12
13298000,-90.36
13307000,-91.71
13316000,-92.71
13325000,-93.17
13334000,-92.03
13343000,-90.47
13352000,-93.45
13361000,-92.03
13370000,-92.45
13379000,-91.55
13388000,-91.25
13397000,-92.19
13406000,-91.33
13415000,-92.45
13424000,-91.4
13433000,-91.63
13442000,-92.28
13451000,-92.45
13460000,-91.71
13469000,-91.71
13478000,-92.89
13487000,-91.55
13496000,-92.54
13505000,-91.4
13514000,-92.11
13523000,-92.71
13532000,-93.64
13541000,-91.03
13550000,-91.62
13559000,-91.77
13568000,-92.35
13577000,-92.43
13586000,-92.68
13595000,-93.9
13604000,-92.18
13613000,-93.13
13622000,-93.32
13631000,-90.16
13640000,-91.93
13649000,-91.39
13658000,-91.93
13667000,-93.32
13676000,-93.41
13685000,-92.26
13694000,-94.1
13703000,-92.26
13712000,-94.1
13721000,-93.41
13730000,-92.43
13739000,-90.74
13748000,-92.26
13757000,-91.77
13766000,-91.85
13775000,-92.43
13784000,-93.13
13793000,-93.13
13802000,-94.1
13811000,-92.51
13820000,-93.51
13829000,-92.6
13838000,-91.93
13847000,-92.09
13856000,-93.13
13865000,-92.26
13874000,-92.95
13883000,-93.04
13892000,-93.41
13901000,-91.46
13910000,-92.77
13919000,-93.7
13928000,-91.46
13937000,-92.35
13946000,-92.35
13955000,-91.39
13964000,-91.24
13973000,-89.41
13982000,-92.68
13991000,-92.18
14000000,-92.42
14009000,-91.09
14018000,-93.13
14027000,-92.42
14036000,-93.61
14045000,-92.18
14054000,-92.09
14063000,-91.93
14072000,-94
14081000,-91.24
14090000,-92.26
14099000,-91.93
14108000,-92.6
14117000,-92.42
14126000,-92.09
14135000,-93.31
14144000,-92.01
14153000,-92.68
14162000,-92.42
14171000,-92.6
14180000,-93.51
14189000,-92.6
14198000,-93.22
14207000,-91.85
14216000,-89.9
14225000,-91.24
14234000,-92.95
14243000,-92.42
14252000,-90.88
14261000,-91.54
14270000,-92.95
14279000,-90.42
14288000,-91.31
14297000,-93.51
14306000,-93.31
14315000,-91.61
14324000,-92.42
14333000,-92.34
14342000,-92.09
14351000,-93.13
14360000,-93.89
14369000,-92.68
14378000,-91.31
14387000,-92.09
14396000,-92.09
14405000,-92.09
14414000,-93.41
14423000,-92.6
14432000,-92.34
14441000,-92.76
14450000,-90.59
14459000,-92.95
14468000,-92.01
14477000,-92.68
14486000,-90.15
14495000,-91.54
14504000,-92.42
14513000,-93.41
14522000,-93.04
14531000,-93.04
14540000,-91.46
14549000,-89.77
14558000,-92.42
14567000,-91.16
14576000,-92.51
14585000,-92
14594000,-91.16
14603000,-91.93
14612000,-92.85
14621000,-93.31
14630000,-92
14639000,-92.08
14648000,-93.04
14657000,-92.25
14666000,-92.08
14675000,-92.76
14684000,-93.22
14693000,-92.95
14702000,-92.51
14711000,-91.69
14720000,-92.67
14729000,-92.08
14738000,-91.69
14747000,-92.95
14756000,-92.88
14765000,-93.06
14774000,-92.7
14783000,-93.44
14792000,-93.06
14801000,-91.47
14810000,-93.44
14819000,-92.35
14828000,-92.53
14837000,-91.94
14846000,-93.24
14855000,-91.24
14864000,-92.88
14873000,-90.35
14882000,-93.82
14891000,-92.88
14900000,-92.44
14909000,-92.01
14918000,-91.09
14927000,-92.35
14936000,-92.27
14945000,-91.62
14954000,-90.95
14963000,-91.7
14972000,-90.08
14981000,-85.67
14990000,-73.02
14999000,-52.07
15008000,-68.26
15017000,-82.96
15026000,-89.7
15035000,-90.08
15044000,-90.52
15053000,-92.35
15062000,-89.7
15071000,-91.7
15080000,-90.88
15089000,-92.35
15098000,-92.52
15107000,-93.15
15116000,-91.62
15125000,-92.69
15134000,-91.54
15143000,-93.24
15152000,-92.27
15161000,-94.02
15170000,-93.72
15179000,-92.01
15188000,-92.35
15197000,-93.05
15206000,-92.35
15215000,-93.82
15224000,-90.52
15233000,-92.27
15242000,-92.6
15251000,-90.59
15260000,-92.18
15269000,-92.88
15278000,-93.72
15287000,-92.88
15296000,-92.96
15305000,-92.35
15314000,-91.85
15323000,-93.24
15332000,-92.88
15341000,-93.69
15350000,-91.66
15359000,-92.4
15368000,-92.15
15377000,-92.49
15386000,-93.02
15395000,-92.49
15404000,-91.2
15413000,-92.74
15422000,-91.58
15431000,-91.05
15440000,-91.9
15449000,-91.43
15458000,-91.58
15467000,-92.66
15476000,-91.98
15485000,-92.84
15494000,-92.14
15503000,-92.31
15512000,-93.4
15521000,-93.78
15530000,-93.2
15539000,-93.11
15548000,-91.5
15557000,-92.66
15566000,-94.2
15575000,-92.31
15584000,-92.74
15593000,-92.49
15602000,-92.57
15611000,-90.98
15620000,-91.74
15629000,-92.31
15638000,-91.28
15647000,-92.84
15656000,-91.66
15665000,-90.84
15674000,-92.31
15683000,-90.41
15692000,-91.82
15701000,-92.57
15710000,-92.84
15719000,-92.84
15728000,-92.49
15737000,-92.84
15746000,-91.97
15755000,-91.82
15764000,-93.78
15773000,-91.28
15782000,-93.2
15791000,-92.14
15800000,-93.11
15809000,-92.74
15818000,-91.2
15827000,-91.58
15836000,-92.49
15845000,-91.97
15854000,-93.39
15863000,-93.39
15872000,-92.14
15881000,-92.65
15890000,-92.14
15899000,-91.74
15908000,-92.49
15917000,-92.31
15926000,-91.5
15935000,-91.93
15944000,-93.62
15953000,-90.8
15962000,-93.14
15971000,-91.85
15980000,-92.34
15989000,-92.17
15998000,-92.96
16007000,-92.69
16016000,-92.34
16025000,-93.05
16034000,-93.33
16043000,-91.85
16052000,-91.93
16061000,-93.14
16070000,-92.68
16079000,-93.72
16088000,-92.34
16097000,-91.69
16106000,-92.77
16115000,-92.87
16124000,-91.69
16133000,-93.05
16142000,-93.42
16151000,-93.05
16160000,-90.94
16169000,-92
16178000,-91.08
16187000,-92.34
16196000,-92.77
16205000,-92.52
16214000,-92.87
16223000,-91.93
16232000,-94.54
16241000,-92.77
16250000,-92.52
16259000,-92.34
16268000,-92.52
16277000,-91.69
16286000,-90.94
16295000,-92.68
16304000,-92.34
16313000,-93.04
16322000,-92.96
16331000,-93.42
16340000,-90.44
16349000,-93.33
16358000,-93.23
16367000,-93.42
16376000,-92.87
16385000,-92.09
16394000,-92.34
16403000,-93.04
16412000,-92.43
16421000,-92.96
16430000,-89.32
16439000,-92.17
16448000,-93.14
16457000,-92.17
16466000,-93.62
16475000,-91.84
16484000,-93.33
16493000,-91.84
16502000,-91.31
16511000,-92.95
16520000,-93.04
16529000,-92.9
16538000,-91.8
16547000,-93.08
16556000,-91.56
16565000,-92.9
16574000,-92.99
16583000,-92.37
16592000,-91.88
16601000,-91.96
16610000,-92.55
16619000,-93.08
16628000,-92.37
