Frequency (Hz),Amplitude (dBm)
5000000,-50.72
5009000,-70.35
5018000,-80.58
5027000,-81.71
5036000,-82.08
5045000,-82.63
5054000,-82.47
5063000,-82.63
5072000,-82.47
5081000,-82.31
5090000,-83.5
5099000,-83.22
5108000,-82.39
5117000,-82.47
5126000,-83.67
5135000,-82.15
5144000,-83.58
5153000,-80.32
5162000,-82.8
5171000,-82.23
5180000,-82.31
5189000,-82.47
5198000,-83.4
5207000,-81.63
5216000,-81.07
5225000,-80.58
5234000,-81.14
5243000,-82.55
5252000,-82.8
5261000,-82.8
5270000,-82.63
5279000,-82.39
5288000,-83.67
5297000,-82.89
5306000,-83.31
5315000,-82.8
5324000,-83.22
5333000,-83.49
5342000,-79.95
5351000,-80.44
5360000,-83.49
5369000,-82.4
5378000,-82.98
5387000,-83.67
5396000,-82.48
5405000,-82.32
5414000,-83.49
5423000,-81.79
5432000,-82.72
5441000,-83.59
5450000,-81.87
5459000,-81.37
5468000,-81.65
5477000,-83.67
5486000,-81.87
5495000,-81.94
5504000,-82.56
5513000,-83.4
5522000,-82.4
5531000,-82.56
5540000,-82.72
5549000,-82.48
5558000,-82.89
5567000,-82.98
5576000,-83.76
5585000,-82.32
5594000,-84.14
5603000,-81.79
5612000,-81.65
5621000,-82.56
5630000,-82.89
5639000,-83.76
5648000,-83.14
5657000,-85.15
5666000,-84.04
5675000,-82.32
5684000,-84.43
5693000,-82.17
5702000,-83.94
5711000,-82.48
5720000,-82.09
5729000,-83.23
5738000,-83.58
5747000,-83.31
5756000,-83.14
5765000,-82.64
5774000,-83.23
5783000,-83.86
5792000,-84.04
5801000,-84.43
5810000,-82.09
5819000,-83.58
5828000,-81.16
5837000,-81.87
5846000,-83.05
5855000,-79.57
5864000,-82.56
5873000,-83.05
5882000,-83.4
5891000,-83.14
5900000,-83.23
5909000,-83.05
5918000,-82.72
5927000,-83.58
5936000,-84.33
5945000,-83.58
5954000,-81.05
5963000,-83.95
5972000,-83.39
5981000,-84.43
5990000,-83.21
5999000,-82.62
6008000,-84.14
6017000,-83.3
6026000,-82.47
6035000,-83.49
6044000,-83.49
6053000,-83.14
6062000,-82.96
6071000,-82.62
6080000,-83.58
6089000,-84.43
6098000,-84.04
6107000,-83.66
6116000,-84.24
6125000,-84.04
6134000,-82.79
6143000,-82.46
6152000,-83.85
6161000,-84.24
6170000,-84.63
6179000,-82.54
6188000,-81.63
6197000,-82.3
6206000,-83.95
6215000,-82
6224000,-83.3
6233000,-83.57
6242000,-84.14
6251000,-82.3
6260000,-83.21
6269000,-81.27
6278000,-83.94
6287000,-83.21
6296000,-82.62
6305000,-82.71
6314000,-82.3
6323000,-82.62
6332000,-83.94
6341000,-83.3
6350000,-82.96
6359000,-83.49
6368000,-82.38
6377000,-81.62
6386000,-84.14
6395000,-83.49
6404000,-84.53
6413000,-84.63
6422000,-83.85
6431000,-82.79
6440000,-82.14
6449000,-83.48
6458000,-83.48
6467000,-83.48
6476000,-82.38
6485000,-84.04
6494000,-80.69
6503000,-81.41
6512000,-82.95
6521000,-83.04
6530000,-81.99
6539000,-84.63
6548000,-84.63
6557000,-82.95
6566000,-84.53
6575000,-80.95
6584000,-83.48
6593000,-82.71
6602000,-84.53
6611000,-82.38
6620000,-83.48
6629000,-84.53
6638000,-81.77
6647000,-81.92
6656000,-81.77
6665000,-84.74
6674000,-83.84
6683000,-84.74
6692000,-81.77
6701000,-82.62
6710000,-82.38
6719000,-83.66
6728000,-83.84
6737000,-83.48
6746000,-83.76
6755000,-82.95
6764000,-84.43
6773000,-83.48
6782000,-83.48
6791000,-83.76
6800000,-83.84
6809000,-84.13
6818000,-82.71
6827000,-83.66
6836000,-83.66
6845000,-83.66
6854000,-83.48
6863000,-83.66
6872000,-84.04
6881000,-82.46
6890000,-83.3
6899000,-83.84
6908000,-82.14
6917000,-84.33
6926000,-83.13
6935000,-84.23
6944000,-84.13
6953000,-82.78
6962000,-82.95
6971000,-83.04
6980000,-82.54
6989000,-82.62
6998000,-83.3
7007000,-84.53
7016000,-83.57
7025000,-83.84
7034000,-83.75
7043000,-84.84
7052000,-81.41
7061000,-83.29
7070000,-83.13
7079000,-83.94
7088000,-83.84
7097000,-83.94
7106000,-84.04
7115000,-84.03
7124000,-83.48
7133000,-83.13
7142000,-83.57
7151000,-84.42
7160000,-83.22
7169000,-84.62
7178000,-84.72
7187000,-83.39
7196000,-82.71
7205000,-81.5
7214000,-83.93
7223000,-84.32
7232000,-83.39
7241000,-84.93
7250000,-82.87
7259000,-83.75
7268000,-82.71
7277000,-82.23
7286000,-82.08
7295000,-84.13
7304000,-84.03
7313000,-84.22
7322000,-84.32
7331000,-84.62
7340000,-81.36
7349000,-83.04
7358000,-84.32
7367000,-84.72
7376000,-82.96
7385000,-83.38
7394000,-83.22
7403000,-83.22
7412000,-83.3
7421000,-84.72
7430000,-82.39
7439000,-84.12
7448000,-85.03
7457000,-83.38
7466000,-84.42
7475000,-84.72
7484000,-82.87
7493000,-84.72
7502000,-84.72
7511000,-83.93
7520000,-82.96
7529000,-82.55
7538000,-83.22
7547000,-83.04
7556000,-83.22
7565000,-82.39
7574000,-84.41
7583000,-83.38
7592000,-82.79
7601000,-84.12
7610000,-83.13
7619000,-84.12
7628000,-84.12
7637000,-84.03
7646000,-84.51
7655000,-83.04
7664000,-83.84
7673000,-82.46
7682000,-82.87
7691000,-82.96
7700000,-83.66
7709000,-82.79
7718000,-84.71
7727000,-83.93
7736000,-83.26
7745000,-84.59
7754000,-83.44
7763000,-84.48
7772000,-83.71
7781000,-83.71
7790000,-83.44
7799000,-83.62
7808000,-82.67
7817000,-82.51
7826000,-81.18
7835000,-83.09
7844000,-83.99
7853000,-83.99
7862000,-83.53
7871000,-84.89
7880000,-84.79
7889000,-84.48
7898000,-84.09
7907000,-83.26
7916000,-83.09
7925000,-84.09
7934000,-83.35
7943000,-84.28
7952000,-84.48
7961000,-83.53
7970000,-84.89
7979000,-83.71
7988000,-83.44
7997000,-83.26
8006000,-83.26
8015000,-84.28
8024000,-85.32
8033000,-83.53
8042000,-83.62
8051000,-83.53
8060000,-82.27
8069000,-83.53
8078000,-83.09
8087000,-81.32
8096000,-84.38
8105000,-82.04
8114000,-82.92
8123000,-84.28
8132000,-83.81
8141000,-83.71
8150000,-82.67
8159000,-83.89
8168000,-84.28
8177000,-84.58
8186000,-82.59
8195000,-82.35
8204000,-84.28
8213000,-81.6
8222000,-84.18
8231000,-84.48
8240000,-84.68
8249000,-85.32
8258000,-84.09
8267000,-83.89
8276000,-83.71
8285000,-84.58
8294000,-83.71
8303000,-84.58
8312000,-82.04
8321000,-83.86
8330000,-83.68
8339000,-84.75
8348000,-84.25
8357000,-85.51
8366000,-84.65
8375000,-83.68
8384000,-84.96
8393000,-83.77
8402000,-84.06
8411000,-82.16
8420000,-84.35
8429000,-81.71
8438000,-83.86
8447000,-81.94
8456000,-84.86
8465000,-82.64
8474000,-82.32
8483000,-83.5
8492000,-82.8
8501000,-82.48
8510000,-83.59
8519000,-83.4
8528000,-83.4
8537000,-83.5
8546000,-83.77
8555000,-83.77
8564000,-82.97
8573000,-83.67
8582000,-84.44
8591000,-84.96
8600000,-82.97
8609000,-84.15
8618000,-83.67
8627000,-84.15
8636000,-84.05
8645000,-83.67
8654000,-82.63
8663000,-83.86
8672000,-84.55
8681000,-83.59
8690000,-84.15
8699000,-83.06
8708000,-82.72
8717000,-81.71
8726000,-83.67
8735000,-84.44
8744000,-84.64
8753000,-83.31
8762000,-84.44
8771000,-84.55
8780000,-82.97
8789000,-83.4
8798000,-84.34
8807000,-82.47
8816000,-85.17
8825000,-82.97
8834000,-83.86
8843000,-84.25
8852000,-84.34
8861000,-84.15
8870000,-82.08
8879000,-84.75
8888000,-82.89
8897000,-84.34
8906000,-83.34
8915000,-83.7
8924000,-84.99
8933000,-85.32
8942000,-84.08
8951000,-84.08
8960000,-84.28
8969000,-83.89
8978000,-84.58
8987000,-84.28
8996000,-84.47
9005000,-82.5
9014000,-85.65
9023000,-84.08
9032000,-84.67
9041000,-84.28
9050000,-84.37
9059000,-84.27
9068000,-85.1
9077000,-84.08
9086000,-85.54
9095000,-85.77
9104000,-83.89
9113000,-84.88
9122000,-84.47
9131000,-84.08
9140000,-84.27
9149000,-83.43
9158000,-83.43
9167000,-84.88
9176000,-83.89
9185000,-84.18
9194000,-82.11
9203000,-85.42
9212000,-84.88
9221000,-83.52
9230000,-83.7
9239000,-83.52
9248000,-82.34
9257000,-83.61
9266000,-83.17
9275000,-82.34
9284000,-85.31
9293000,-82.34
9302000,-84.57
9311000,-84.08
9320000,-82.58
9329000,-83.61
9338000,-84.57
9347000,-83.52
9356000,-84.88
9365000,-83.43
9374000,-82.42
9383000,-84.57
9392000,-82.99
9401000,-84.57
9410000,-83.43
9419000,-83.8
9428000,-85.53
9437000,-83.43
9446000,-82.58
9455000,-82.99
9464000,-83.34
9473000,-83.7
9482000,-84.57
9491000,-84.88
9500000,-85.65
9509000,-83.24
9518000,-83.89
9527000,-82.82
9536000,-83.43
9545000,-83.24
9554000,-83.08
9563000,-84.89
9572000,-83.98
9581000,-81.5
9590000,-85.32
9599000,-83.7
9608000,-82.73
9617000,-83.98
9626000,-83.33
9635000,-83.6
9644000,-82.65
9653000,-84.79
9662000,-81.5
9671000,-82.65
9680000,-83.15
9689000,-84.08
9698000,-84.37
9707000,-84.79
9716000,-82.56
9725000,-84.79
9734000,-83.52
9743000,-83.15
9752000,-84.57
9761000,-84.57
9770000,-83.15
9779000,-83.79
9788000,-83.6
9797000,-83.79
9806000,-84.27
9815000,-82.73
9824000,-83.89
9833000,-84.78
9842000,-84.48
9851000,-82.48
9860000,-84.18
9869000,-82.32
9878000,-84.08
9887000,-84.57
9896000,-82.56
9905000,-82.65
9914000,-82.4
9923000,-83.79
9932000,-83.24
9941000,-83.79
9950000,-83.79
9959000,-84.57
9968000,-84.57
9977000,-83.07
9986000,-76.63
9995000,-57.47
10004000,-55.79
10013000,-78.05
10022000,-83.24
10031000,-84.89
10040000,-84.08
10049000,-83.98
10058000,-83.15
10067000,-83.6
10076000,-83.24
10085000,-84.57
10094000,-83.98
10103000,-83.57
10112000,-83.13
10121000,-84.63
10130000,-83.76
10139000,-84.04
10148000,-83.66
10157000,-84.24
10166000,-83.85
10175000,-83.85
10184000,-84.33
10193000,-84.74
10202000,-84.24
10211000,-84.84
10220000,-83.76
10229000,-83.57
10238000,-82.71
10247000,-82.79
10256000,-84.23
10265000,-83.66
10274000,-84.63
10283000,-84.84
10292000,-84.53
10301000,-84.23
10310000,-84.23
10319000,-84.23
10328000,-82.88
10337000,-85.05
10346000,-84.04
10355000,-84.04
10364000,-85.49
10373000,-83.13
10382000,-85.16
10391000,-85.27
10400000,-84.95
10409000,-85.49
10418000,-85.49
10427000,-82.3
10436000,-83.21
10445000,-83.66
10454000,-85.38
10463000,-84.43
10472000,-83.84
10481000,-84.33
10490000,-83.21
10499000,-84.04
10508000,-83.84
10517000,-83.48
10526000,-85.05
10535000,-84.63
10544000,-84.53
10553000,-82.38
10562000,-84.73
10571000,-85.72
10580000,-83.57
10589000,-82.87
10598000,-84.63
10607000,-83.3
10616000,-84.43
10625000,-83.94
10634000,-83.57
10643000,-84.63
10652000,-83.84
10661000,-84.43
10670000,-83.84
10679000,-83.48
10688000,-84.78
10697000,-84.47
10706000,-83.51
10715000,-84.17
10724000,-84.27
10733000,-84.57
10742000,-84.36
10751000,-83.42
10760000,-84.57
10769000,-83.69
10778000,-84.99
10787000,-84.99
10796000,-84.99
10805000,-83.88
10814000,-83.07
10823000,-84.17
10832000,-84.17
10841000,-85.43
10850000,-85.21
10859000,-83.78
10868000,-83.07
10877000,-84.07
10886000,-83.97
10895000,-85.21
10904000,-84.78
10913000,-84.56
10922000,-85.21
10931000,-85.43
10940000,-84.99
10949000,-84.47
10958000,-84.56
10967000,-84.88
10976000,-83.42
10985000,-84.67
10994000,-84.99
11003000,-84.78
11012000,-82.24
11021000,-82.64
11030000,-84.17
11039000,-84.17
11048000,-84.99
11057000,-83.23
11066000,-85.21
11075000,-84.07
11084000,-84.99
11093000,-84.67
11102000,-83.59
11111000,-84.36
11120000,-83.42
11129000,-83.42
11138000,-83.23
11147000,-83.78
11156000,-84.17
11165000,-83.78
11174000,-83.97
11183000,-84.99
11192000,-84.77
11201000,-84.47
11210000,-84.67
11219000,-84.47
11228000,-83.78
11237000,-85.43
11246000,-83.59
11255000,-84.88
11264000,-84.77
11273000,-82.97
11282000,-83.69
11291000,-82.95
11300000,-83.56
11309000,-83.48
11318000,-81.99
11327000,-85.05
11336000,-82.61
11345000,-83.04
11354000,-83.29
11363000,-85.05
11372000,-85.27
11381000,-84.83
11390000,-84.32
11399000,-83.84
11408000,-85.15
11417000,-84.83
11426000,-83.93
11435000,-84.03
11444000,-84.23
11453000,-84.73
11462000,-83.75
11471000,-84.52
11480000,-81.68
11489000,-84.03
11498000,-83.12
11507000,-84.94
11516000,-84.22
11525000,-85.27
11534000,-83.12
11543000,-85.26
11552000,-83.75
11561000,-83.84
11570000,-84.03
11579000,-83.56
11588000,-83.12
11597000,-83.65
11606000,-84.03
11615000,-84.52
11624000,-81.68
11633000,-84.62
11642000,-82.94
11651000,-83.65
11660000,-83.12
11669000,-85.95
11678000,-83.84
11687000,-84.03
11696000,-83.12
11705000,-82.86
11714000,-83.47
11723000,-83.83
11732000,-83.12
11741000,-84.42
11750000,-83.29
11759000,-83.83
11768000,-84.62
11777000,-85.48
11786000,-84.62
11795000,-84.83
11804000,-84.22
11813000,-84.62
11822000,-82.61
11831000,-83.47
11840000,-83.56
11849000,-84.03
11858000,-84.94
11867000,-84.22
11876000,-82.91
11885000,-84.59
11894000,-83.62
11903000,-84.49
11912000,-83.8
11921000,-84.38
11930000,-83.9
11939000,-84.38
11948000,-85.01
11957000,-81.3
11966000,-84.49
11975000,-83.44
11984000,-83.26
11993000,-82.58
12002000,-82.58
12011000,-83.8
12020000,-84.38
12029000,-84
12038000,-84.8
12047000,-82.91
12056000,-84.69
12065000,-83.8
12074000,-83.34
12083000,-84.19
12092000,-84.9
12101000,-84.38
12110000,-82.58
12119000,-83.25
12128000,-84.69
12137000,-83.71
12146000,-84.29
12155000,-84.59
12164000,-84.38
12173000,-83.25
12182000,-85.45
12191000,-84.69
12200000,-82.66
12209000,-85.11
12218000,-83.34
12227000,-84.29
12236000,-84.19
12245000,-84.8
12254000,-85.33
12263000,-83.34
12272000,-85.11
12281000,-85.11
12290000,-83.99
12299000,-84.49
12308000,-84.19
12317000,-84.38
12326000,-84.58
12335000,-82.66
12344000,-83.99
12353000,-84.49
12362000,-82.49
12371000,-83.61
12380000,-84.49
12389000,-84.19
12398000,-84.28
12407000,-82.23
12416000,-84.24
12425000,-83.49
12434000,-84.44
12443000,-83.31
12452000,-83.31
12461000,-84.85
12470000,-83.52
12479000,-85.09
12488000,-84.08
12497000,-84.08
12506000,-84.88
12515000,-84.47
12524000,-86
12533000,-84.47
12542000,-82.03
12551000,-84.27
12560000,-84.27
12569000,-85.09
12578000,-84.78
12587000,-84.47
12596000,-84.27
12605000,-83.47
12614000,-84.72
12623000,-84.61
12632000,-84.41
12641000,-84.02
12650000,-84.31
12659000,-82.77
12668000,-82.13
12677000,-84.82
12686000,-85.36
12695000,-84.22
12704000,-82.36
12713000,-84.41
12722000,-82.86
12731000,-85.71
12740000,-82.77
12749000,-84.31
12758000,-84.21
12767000,-82.12
12776000,-84.51
12785000,-84.12
12794000,-83.37
12803000,-84.51
12812000,-83.37
12821000,-82.36
12830000,-84.21
12839000,-85.36
12848000,-85.14
12857000,-84.21
12866000,-83.28
12875000,-83.83
12884000,-85.14
12893000,-83.11
12902000,-84.02
12911000,-83.64
12920000,-83.28
12929000,-85.14
12938000,-84.02
12947000,-84.93
12956000,-84.31
12965000,-85.47
12974000,-85.03
12983000,-84.12
12992000,-83.92
13001000,-85.14
13010000,-83.46
13019000,-85.03
13028000,-84.93
13037000,-85.7
13046000,-82.77
13055000,-84.02
13064000,-83.82
13073000,-83.37
13082000,-84.82
13091000,-84.41
13100000,-83.64
13109000,-84.51
13118000,-83.46
13127000,-84.61
13136000,-83.46
13145000,-83.46
13154000,-85.03
13163000,-84.61
13172000,-82.76
13181000,-84.71
13190000,-85.03
13199000,-84.41
13208000,-84.4
13217000,-83.82
13226000,-84.21
13235000,-83.55
13244000,-83.11
13253000,-83.82
13262000,-84.82
13271000,-84.02
13280000,-84.02
13289000,-84.61
13298000,-84.21
13307000,-84.4
13316000,-85.03
13325000,-84.4
13334000,-84.11
13343000,-83.11
13352000,-84.11
13361000,-84.21
13370000,-83.73
13379000,-84.02
13388000,-84.51
13397000,-85.25
13406000,-83.19
13415000,-83.73
13424000,-82.44
13433000,-85.47
13442000,-84.21
13451000,-84.61
13460000,-84.71
13469000,-83.73
13478000,-83.73
13487000,-83.11
13496000,-83.64
13505000,-84.82
13514000,-85.03
13523000,-84.21
13532000,-84.61
13541000,-83.19
13550000,-83.46
13559000,-85.03
13568000,-85.13
13577000,-84.4
13586000,-84.6
13595000,-83.55
13604000,-83.46
13613000,-84.51
13622000,-83.92
13631000,-84.4
13640000,-85.25
13649000,-84.01
13658000,-84.51
13667000,-84.01
13676000,-82.76
13685000,-84.82
13694000,-84.4
13703000,-83.73
13712000,-84.3
13721000,-80.04
13730000,-85.25
13739000,-82.76
13748000,-83.02
13757000,-84.51
13766000,-84.21
13775000,-84.81
13784000,-83.82
13793000,-83.36
13802000,-84.11
13811000,-84.6
13820000,-85.13
13829000,-84.4
13838000,-84.6
13847000,-84.01
13856000,-84.51
13865000,-85.25
13874000,-84.4
13883000,-82.76
13892000,-82.85
13901000,-84.4
13910000,-84.92
13919000,-83.1
13928000,-86.06
13937000,-84.11
13946000,-84.11
13955000,-85.7
13964000,-83.73
13973000,-84.5
13982000,-85.35
13991000,-84.5
14000000,-85.02
14009000,-83.36
14018000,-84.6
14027000,-84.11
14036000,-85.47
14045000,-83.63
14054000,-84.2
14063000,-83.27
14072000,-83.27
14081000,-84.11
14090000,-84.92
14099000,-84.4
14108000,-84.71
14117000,-83.36
14126000,-80.28
14135000,-84.01
14144000,-83.63
14153000,-85.24
14162000,-84.81
14171000,-84.5
14180000,-85.02
14189000,-82.43
14198000,-82.04
14207000,-82.27
14216000,-84.6
14225000,-85.13
14234000,-81.52
14243000,-83.73
14252000,-83.57
14261000,-85.4
14270000,-83.85
14279000,-84.14
14288000,-83.39
14297000,-84.75
14306000,-83.04
14315000,-84.33
14324000,-84.14
14333000,-82.95
14342000,-83.12
14351000,-83.66
14360000,-84.54
14369000,-83.57
14378000,-83.12
14387000,-83.12
14396000,-83.75
14405000,-85.07
14414000,-82.86
14423000,-83.57
14432000,-84.96
14441000,-85.63
14450000,-82.29
14459000,-84.33
14468000,-85.4
14477000,-85.4
14486000,-84.54
14495000,-85.29
14504000,-83.75
14513000,-82.95
14522000,-83.2
14531000,-84.44
14540000,-82.78
14549000,-81.98
14558000,-84.64
14567000,-85.06
14576000,-83.39
14585000,-82.61
14594000,-83.75
14603000,-84.75
14612000,-83.94
14621000,-82.61
14630000,-84.53
14639000,-84.53
14648000,-81.98
14657000,-84.53
14666000,-83.75
14675000,-84.53
14684000,-84.53
14693000,-83.29
14702000,-85.51
14711000,-84.53
14720000,-83.56
14729000,-84.33
14738000,-84.53
14747000,-84.53
14756000,-84.64
14765000,-85.51
14774000,-85.4
14783000,-84.53
14792000,-84.85
14801000,-86.11
14810000,-83.2
14819000,-83.85
14828000,-83.75
14837000,-84.14
14846000,-83.23
14855000,-84.88
14864000,-82.55
14873000,-85.21
14882000,-83.42
14891000,-85.54
14900000,-83.78
14909000,-84.36
14918000,-83.06
14927000,-84.67
14936000,-84.56
14945000,-84.77
14954000,-84.47
14963000,-84.17
14972000,-83.88
14981000,-82.64
14990000,-73.16
14999000,-51.74
15008000,-68.71
15017000,-80.75
15026000,-84.17
15035000,-84.17
15044000,-85.43
15053000,-84.77
15062000,-83.78
15071000,-84.07
15080000,-84.07
15089000,-84.07
15098000,-84.99
15107000,-85.89
15116000,-84.99
15125000,-83.42
15134000,-83.06
15143000,-84.56
15152000,-84.36
15161000,-84.56
15170000,-83.59
15179000,-85.21
15188000,-84.16
15197000,-83.59
15206000,-85.2
15215000,-84.36
15224000,-84.46
15233000,-85.2
15242000,-83.41
15251000,-84.46
15260000,-84.77
15269000,-84.98
15278000,-84.16
15287000,-85.09
15296000,-85.2
15305000,-82.39
15314000,-83.5
15323000,-84.07
15332000,-83.06
15341000,-82.55
15350000,-84.46
15359000,-84.16
15368000,-84.26
15377000,-83.97
15386000,-81.48
15395000,-84.77
15404000,-84.36
15413000,-85.42
15422000,-84.98
15431000,-84.33
15440000,-84.63
15449000,-82.44
15458000,-83.74
15467000,-85.06
15476000,-84.13
15485000,-84.74
15494000,-84.33
15503000,-84.53
15512000,-84.95
15521000,-85.06
15530000,-83.94
15539000,-83.65
15548000,-85.86
15557000,-84.13
15566000,-84.23
15575000,-83.38
15584000,-84.74
15593000,-83.94
15602000,-84.53
15611000,-83.94
15620000,-83.28
15629000,-84.53
15638000,-84.53
15647000,-84.32
15656000,-83.74
15665000,-83.56
15674000,-84.63
15683000,-84.03
15692000,-85.28
15701000,-83.74
15710000,-84.32
15719000,-84.53
15728000,-86.23
15737000,-84.53
15746000,-84.23
15755000,-83.65
15764000,-84.95
15773000,-84.74
15782000,-84.53
15791000,-83.74
15800000,-83.19
15809000,-84.43
15818000,-83.38
15827000,-83.47
15836000,-85.74
15845000,-83.11
15854000,-85.5
15863000,-84.53
15872000,-84.95
15881000,-83.93
15890000,-84.23
15899000,-84.43
15908000,-84.13
15917000,-84.32
15926000,-83.47
15935000,-84.13
15944000,-85.27
15953000,-85.17
15962000,-84.52
15971000,-83.19
15980000,-84.84
15989000,-85.17
15998000,-84.13
16007000,-85.27
16016000,-83.55
16025000,-84.59
16034000,-84.59
16043000,-84.8
16052000,-81.58
16061000,-83.53
16070000,-82.42
16079000,-85.23
16088000,-85.11
16097000,-84.19
16106000,-84.49
16115000,-83.99
16124000,-84.8
16133000,-85.23
16142000,-84.28
16151000,-84.38
16160000,-85.33
16169000,-84.8
16178000,-84.28
16187000,-83.44
16196000,-84.09
16205000,-84.8
16214000,-84.8
16223000,-85.01
16232000,-85.68
16241000,-82.33
16250000,-84.69
16259000,-84.09
16268000,-84.28
16277000,-83.44
16286000,-86.04
16295000,-85.33
16304000,-83.44
16313000,-84.28
16322000,-85.23
16331000,-83.08
16340000,-83.44
16349000,-83.61
16358000,-84.09
16367000,-83.99
16376000,-85.8
16385000,-83.99
16394000,-83.08
16403000,-83.08
16412000,-83.61
16421000,-85.33
16430000,-84.58
16439000,-84.9
16448000,-85.91
16457000,-85.33
16466000,-85.01
16475000,-84.58
16484000,-85.33
16493000,-83.99
16502000,-84.18
16511000,-83.8
16520000,-84.38
16529000,-84.69
16538000,-84.69
16547000,-85
16556000,-84.38
16565000,-85.56
16574000,-84.58
16583000,-85.22
16592000,-85
