Frequency (Hz),Amplitude (dBm)
5000000,-51.04
5009000,-71.03
5018000,-83.41
5027000,-89.21
5036000,-91.48
5045000,-91.2
5054000,-89.66
5063000,-90.76
5072000,-92.45
5081000,-91.77
5090000,-92.07
5099000,-92.45
5108000,-90.38
5117000,-92.78
5126000,-91.92
5135000,-92.53
5144000,-91.03
5153000,-90.64
5162000,-91.7
5171000,-91.48
5180000,-91.77
5189000,-91.2
5198000,-91.62
5207000,-90.38
5216000,-92.86
5225000,-91.2
5234000,-91.48
5243000,-91.77
5252000,-92.14
5261000,-91.34
5270000,-92.78
5279000,-92.78
5288000,-91.34
5297000,-91.02
5306000,-91.77
5315000,-92.21
5324000,-90.26
5333000,-91.02
5342000,-91.99
5351000,-90.89
5360000,-91.69
5369000,-92.61
5378000,-91.99
5387000,-93.2
5396000,-91.2
5405000,-91.55
5414000,-90.5
5423000,-91.02
5432000,-90.76
5441000,-92.06
5450000,-90.89
5459000,-91.91
5468000,-92.86
5477000,-91.62
5486000,-91.62
5495000,-92.61
5504000,-91.48
5513000,-90.63
5522000,-90.63
5531000,-90.38
5540000,-91.91
5549000,-91.41
5558000,-92.21
5567000,-92.37
5576000,-91.91
5585000,-92.21
5594000,-90.76
5603000,-91.13
5612000,-93.46
5621000,-93.02
5630000,-91.91
5639000,-91.02
5648000,-91.76
5657000,-91.76
5666000,-90.89
5675000,-92.94
5684000,-91.84
5693000,-92.69
5702000,-91.48
5711000,-90.5
5720000,-91.48
5729000,-90.5
5738000,-91.99
5747000,-91.48
5756000,-91.84
5765000,-91.55
5774000,-93.11
5783000,-90.13
5792000,-91.55
5801000,-91.76
5810000,-91.34
5819000,-91.02
5828000,-93.2
5837000,-92.14
5846000,-92.94
5855000,-91.76
5864000,-89.65
5873000,-91.94
5882000,-92.4
5891000,-91.94
5900000,-91.44
5909000,-90.16
5918000,-91.72
5927000,-91.37
5936000,-91.65
5945000,-92.09
5954000,-92.72
5963000,-91.05
5972000,-92.56
5981000,-91.94
5990000,-92.09
5999000,-90.92
6008000,-91.51
6017000,-92.88
6026000,-91.44
6035000,-93.23
6044000,-91.3
6053000,-91.65
6062000,-93.14
6071000,-92.24
6080000,-91.23
6089000,-91.94
6098000,-93.39
6107000,-91.22
6116000,-91.51
6125000,-92.88
6134000,-90.03
6143000,-91.94
6152000,-92.72
6161000,-91.51
6170000,-91.79
6179000,-91.22
6188000,-92.09
6197000,-92.88
6206000,-90.92
6215000,-93.23
6224000,-92.09
6233000,-92.97
6242000,-91.94
6251000,-93.23
6260000,-92.71
6269000,-93.14
6278000,-90.91
6287000,-92.09
6296000,-90.66
6305000,-93.23
6314000,-92.88
6323000,-92.02
6332000,-92.71
6341000,-91.05
6350000,-92.17
6359000,-92.71
6368000,-92.71
6377000,-88.7
6386000,-91.79
6395000,-92.71
6404000,-92.88
6413000,-92.63
6422000,-91.05
6431000,-92.4
6440000,-90.91
6449000,-91.5
6458000,-90.66
6467000,-92.24
6476000,-92.8
6485000,-91.36
6494000,-90.78
6503000,-92.02
6512000,-90.91
6521000,-92.39
6530000,-91.94
6539000,-92.63
6548000,-92.71
6557000,-91.94
6566000,-93.05
6575000,-92.55
6584000,-89.68
6593000,-92.97
6602000,-92.47
6611000,-92.16
6620000,-91.94
6629000,-91.79
6638000,-92.39
6647000,-91.29
6656000,-91.64
6665000,-90.52
6674000,-92.55
6683000,-92.23
6692000,-90.78
6701000,-92.63
6710000,-92.47
6719000,-91.78
6728000,-90.52
6737000,-92.88
6746000,-93.3
6755000,-93.22
6764000,-92.39
6773000,-92.16
6782000,-92.08
6791000,-93.05
6800000,-93.57
6809000,-91.57
6818000,-91.64
6827000,-91.29
6836000,-91.57
6845000,-92.97
6854000,-92.47
6863000,-89.34
6872000,-91.64
6881000,-92.63
6890000,-91.78
6899000,-92.31
6908000,-91.71
6917000,-92.63
6926000,-91.15
6935000,-91.04
6944000,-91.22
6953000,-92.88
6962000,-92.31
6971000,-93.75
6980000,-90.03
6989000,-91.93
6998000,-91.64
7007000,-92.23
7016000,-92.88
7025000,-92.16
7034000,-90.15
7043000,-91.71
7052000,-90.91
7061000,-92.16
7070000,-91.64
7079000,-92.63
7088000,-91.04
7097000,-93.39
7106000,-91.93
7115000,-90.78
7124000,-91.64
7133000,-91.36
7142000,-91.15
7151000,-93.22
7160000,-92.08
7169000,-90.78
7178000,-91.22
7187000,-93.47
7196000,-93.57
7205000,-90.91
7214000,-93.04
7223000,-91.64
7232000,-92.79
7241000,-93.04
7250000,-92.87
7259000,-93.13
7268000,-93.04
7277000,-92.01
7286000,-93.22
7295000,-91.64
7304000,-90.4
7313000,-90.77
7322000,-93.22
7331000,-90.39
7340000,-92.71
7349000,-90.02
7358000,-92.55
7367000,-92.08
7376000,-91.64
7385000,-92.39
7394000,-91.93
7403000,-91.64
7412000,-93.22
7421000,-92.01
7430000,-92.23
7439000,-92.63
7448000,-92.87
7457000,-92.16
7466000,-91.71
7475000,-92.23
7484000,-91.57
7493000,-91.35
7502000,-90.65
7511000,-91.04
7520000,-92.01
7529000,-91.35
7538000,-91.71
7547000,-92.87
7556000,-92.23
7565000,-92.08
7574000,-92.7
7583000,-93.66
7592000,-91.5
7601000,-92.39
7610000,-90.9
7619000,-92.87
7628000,-91.78
7637000,-92.16
7646000,-90.33
7655000,-91.87
7664000,-91.43
7673000,-91.72
7682000,-93.32
7691000,-90.84
7700000,-92.81
7709000,-92.16
7718000,-91.94
7727000,-92.16
7736000,-91.43
7745000,-93.06
7754000,-91.36
7763000,-92.01
7772000,-91.29
7781000,-91.71
7790000,-91.57
7799000,-92.32
7808000,-92.24
7817000,-91.57
7826000,-92.48
7835000,-92.64
7844000,-91.36
7853000,-92.32
7862000,-92.97
7871000,-92.09
7880000,-92.64
7889000,-92.4
7898000,-91.79
7907000,-92.32
7916000,-91.29
7925000,-92.4
7934000,-93.59
7943000,-92.97
7952000,-90.2
7961000,-90.58
7970000,-90.71
7979000,-92.64
7988000,-93.32
7997000,-93.5
8006000,-92.97
8015000,-92.16
8024000,-92.09
8033000,-93.15
8042000,-93.15
8051000,-92.97
8060000,-92.09
8069000,-91.15
8078000,-92.16
8087000,-93.15
8096000,-92.81
8105000,-93.23
8114000,-92.01
8123000,-92.4
8132000,-92.64
8141000,-93.5
8150000,-91.71
8159000,-91.08
8168000,-92.56
8177000,-93.15
8186000,-92.48
8195000,-93.23
8204000,-93.23
8213000,-91.71
8222000,-92.97
8231000,-92.7
8240000,-92.22
8249000,-91.42
8258000,-93.74
8267000,-93.21
8276000,-92.15
8285000,-92.79
8294000,-92.07
8303000,-91.63
8312000,-91.56
8321000,-91.85
8330000,-93.21
8339000,-92.22
8348000,-92.07
8357000,-92.86
8366000,-92.86
8375000,-92.7
8384000,-91.14
8393000,-91.85
8402000,-91.7
8411000,-94.02
8420000,-92
8429000,-93.03
8438000,-91.77
8447000,-91.49
8456000,-93.03
8465000,-92.95
8474000,-92.86
8483000,-91.63
8492000,-91.42
8501000,-92.07
8510000,-91.21
8519000,-93.56
8528000,-92.54
8537000,-94.02
8546000,-91.13
8555000,-93.29
8564000,-92
8573000,-92.7
8582000,-92.38
8591000,-93.37
8600000,-93.21
8609000,-93.21
8618000,-92.86
8627000,-91.85
8636000,-93.12
8645000,-92.22
8654000,-93.03
8663000,-90.01
8672000,-92.69
8681000,-93.03
8690000,-92.54
8699000,-91.85
8708000,-93.37
8717000,-92.62
8726000,-91.63
8735000,-91.2
8744000,-92.38
8753000,-92.69
8762000,-93.37
8771000,-92.07
8780000,-92.54
8789000,-91.49
8798000,-92.54
8807000,-93.21
8816000,-90.76
8825000,-92.38
8834000,-92.5
8843000,-93.17
8852000,-92.19
8861000,-93
8870000,-92.5
8879000,-93.17
8888000,-92.5
8897000,-93
8906000,-91.74
8915000,-92.34
8924000,-92.5
8933000,-92.34
8942000,-93.7
8951000,-92.19
8960000,-91.74
8969000,-93.25
8978000,-90.73
8987000,-92.04
8996000,-93.34
9005000,-92.66
9014000,-93.7
9023000,-91.81
9032000,-91.38
9041000,-92.42
9050000,-92.92
9059000,-92.34
9068000,-92.83
9077000,-91.59
9086000,-93.53
9095000,-92.5
9104000,-92.03
9113000,-93.52
9122000,-91.73
9131000,-93.34
9140000,-92.18
9149000,-92.11
9158000,-91.73
9167000,-92.92
9176000,-91.59
9185000,-93.25
9194000,-92.75
9203000,-93.7
9212000,-92.03
9221000,-92.26
9230000,-93.34
9239000,-92.11
9248000,-92.26
9257000,-91.59
9266000,-92.66
9275000,-92.5
9284000,-90.35
9293000,-92.5
9302000,-92.26
9311000,-90.86
9320000,-92.18
9329000,-93.7
9338000,-92.03
9347000,-92.75
9356000,-91.96
9365000,-93.43
9374000,-92.99
9383000,-91.96
9392000,-91.88
9401000,-92.42
9410000,-92.83
9419000,-91.78
9428000,-91.56
9437000,-92.15
9446000,-90.83
9455000,-91.85
9464000,-92.31
9473000,-92.15
9482000,-92.31
9491000,-92.63
9500000,-92.71
9509000,-93.14
9518000,-93.05
9527000,-93.31
9536000,-91.7
9545000,-93.22
9554000,-92.15
9563000,-92.71
9572000,-93.95
9581000,-91.14
9590000,-93.49
9599000,-91.42
9608000,-90.19
9617000,-92.31
9626000,-92.39
9635000,-90.69
9644000,-91.06
9653000,-92.63
9662000,-92.63
9671000,-92.31
9680000,-92.15
9689000,-92.15
9698000,-92.15
9707000,-93.49
9716000,-92.47
9725000,-92.79
9734000,-92.31
9743000,-92.31
9752000,-93.49
9761000,-91.85
9770000,-93.14
9779000,-91.7
9788000,-92.88
9797000,-93.05
9806000,-89.94
9815000,-92.15
9824000,-91.13
9833000,-92.31
9842000,-92.96
9851000,-92.79
9860000,-91.56
9869000,-91.85
9878000,-91.56
9887000,-92.31
9896000,-92.54
9905000,-90.44
9914000,-92.79
9923000,-90.57
9932000,-92.15
9941000,-91.56
9950000,-92.88
9959000,-91.27
9968000,-92
9977000,-89.59
9986000,-81
9995000,-58.19
10004000,-56.6
10013000,-81.29
10022000,-88.64
10031000,-90.72
10040000,-91.16
10049000,-92.99
10058000,-92.65
10067000,-92.26
10076000,-92.74
10085000,-90.6
10094000,-91.88
10103000,-92.82
10112000,-93.69
10121000,-91.73
10130000,-90.6
10139000,-92.74
10148000,-92.33
10157000,-93.79
10166000,-92.57
10175000,-93.42
10184000,-92.91
10193000,-92.74
10202000,-91.73
10211000,-91.88
10220000,-93.79
10229000,-92.1
10238000,-93.16
10247000,-91.73
10256000,-90.72
10265000,-93.52
10274000,-92.33
10283000,-91.88
10292000,-92.33
10301000,-90.6
10310000,-93.6
10319000,-93.52
10328000,-93.16
10337000,-93.16
10346000,-93.24
10355000,-92.65
10364000,-92.49
10373000,-93.16
10382000,-91.09
10391000,-92.99
10400000,-93.88
10409000,-93.69
10418000,-93.33
10427000,-93.07
10436000,-91.87
10445000,-92.49
10454000,-91.3
10463000,-90.98
10472000,-92.82
10481000,-92.98
10490000,-92.1
10499000,-92.91
10508000,-93.16
10517000,-92.57
10526000,-90.72
10535000,-93.33
10544000,-93.88
10553000,-92.65
10562000,-91.44
10571000,-93.24
10580000,-94.46
10589000,-91.87
10598000,-93.18
10607000,-92.04
10616000,-93.1
10625000,-93.63
10634000,-92.75
10643000,-92.19
10652000,-93.1
10661000,-92.75
10670000,-91.17
10679000,-91.1
10688000,-91.66
10697000,-93.01
10706000,-93.27
10715000,-92.04
10724000,-93.27
10733000,-93.45
10742000,-91.96
10751000,-93.81
10760000,-90.79
10769000,-91.1
10778000,-93.63
10787000,-91.1
10796000,-91.96
10805000,-93.01
10814000,-92.59
10823000,-90.79
10832000,-92.67
10841000,-92.19
10850000,-93.26
10859000,-91.81
10868000,-92.92
10877000,-91.31
10886000,-93.45
10895000,-92.43
10904000,-93.63
10913000,-92.67
10922000,-91.38
10931000,-93.26
10940000,-91.38
10949000,-93.45
10958000,-92.43
10967000,-92.84
10976000,-93.26
10985000,-91.66
10994000,-90.78
11003000,-92.75
11012000,-92.5
11021000,-92.84
11030000,-93.26
11039000,-92.92
11048000,-92.04
11057000,-90.78
11066000,-92.75
11075000,-91.66
11084000,-91.96
11093000,-93.62
11102000,-92.11
11111000,-91.45
11120000,-91.23
11129000,-92.5
11138000,-91.37
11147000,-92.92
11156000,-92.27
11165000,-91.96
11174000,-91.81
11183000,-92.27
11192000,-93.09
11201000,-93.17
11210000,-90.78
11219000,-93.26
11228000,-90.92
11237000,-91.66
11246000,-92.26
11255000,-92.92
11264000,-92.18
11273000,-92.26
11282000,-91.37
11291000,-91.96
11300000,-94
11309000,-93
11318000,-92.58
11327000,-92.84
11336000,-93.53
11345000,-90.91
11354000,-93.62
11363000,-91.66
11372000,-92.34
11381000,-90.78
11390000,-92.58
11399000,-90.78
11408000,-94.1
11417000,-91.88
11426000,-92.1
11435000,-92.1
11444000,-93.09
11453000,-93.35
11462000,-93.26
11471000,-92.03
11480000,-92.92
11489000,-92.42
11498000,-92.84
11507000,-93
11516000,-92.34
11525000,-91.73
11534000,-94.39
11543000,-92.67
11552000,-91.23
11561000,-91.65
11570000,-93.26
11579000,-92.03
11588000,-91.44
11597000,-91.44
11606000,-92.91
11615000,-92.58
11624000,-92.58
11633000,-93
11642000,-93
11651000,-89.66
11660000,-92.42
11669000,-92.83
11678000,-92.42
11687000,-92.18
11696000,-91.51
11705000,-91.23
11714000,-91.8
11723000,-92.91
11732000,-93.17
11741000,-91.51
11750000,-93.35
11759000,-93.09
11768000,-92.03
11777000,-93.15
11786000,-92.48
11795000,-92.97
11804000,-92.89
11813000,-93.32
11822000,-93.32
11831000,-91.15
11840000,-92.4
11849000,-93.86
11858000,-94.45
11867000,-93.5
11876000,-92.73
11885000,-92.16
11894000,-93.15
11903000,-91.57
11912000,-93.32
11921000,-90.97
11930000,-92.48
11939000,-91.57
11948000,-93.96
11957000,-92.48
11966000,-93.68
11975000,-93.68
11984000,-93.15
11993000,-92.97
12002000,-92.73
12011000,-93.59
12020000,-91.43
12029000,-91.22
12038000,-92.64
12047000,-93.5
12056000,-92.32
12065000,-93.4
12074000,-91.86
12083000,-92.01
12092000,-92.97
12101000,-94.25
12110000,-92.4
12119000,-92.16
12128000,-92.8
12137000,-92.8
12146000,-93.15
12155000,-92.01
12164000,-92.8
12173000,-93.5
12182000,-93.96
12191000,-92.89
12200000,-93.77
12209000,-92.4
12218000,-94.15
12227000,-92.89
12236000,-93.5
12245000,-93.31
12254000,-93.23
12263000,-93.15
12272000,-92.64
12281000,-91.43
12290000,-93.23
12299000,-93.06
12308000,-92.72
12317000,-92.24
12326000,-91.5
12335000,-91.43
12344000,-93.06
12353000,-93.68
12362000,-92.01
12371000,-92.01
12380000,-92.33
12389000,-92.26
12398000,-92.41
12407000,-93.49
12416000,-93.31
12425000,-93.49
12434000,-92
12443000,-91.85
12452000,-92
12461000,-91.56
12470000,-92.63
12479000,-93.49
12488000,-92.55
12497000,-91.49
12506000,-92
12515000,-91.56
12524000,-92.96
12533000,-92
12542000,-92.23
12551000,-93.67
12560000,-93.67
12569000,-92.31
12578000,-92.08
12587000,-92.63
12596000,-92.15
12605000,-92.57
12614000,-93.16
12623000,-92.02
12632000,-93.16
12641000,-92.91
12650000,-90.77
12659000,-93.99
12668000,-92.25
12677000,-93.61
12686000,-93.16
12695000,-92.09
12704000,-92.02
12713000,-91.5
12722000,-92.83
12731000,-93.43
12740000,-93.34
12749000,-91.87
12758000,-90.9
12767000,-92.74
12776000,-93.61
12785000,-92.9
12794000,-91.36
12803000,-93.43
12812000,-92.9
12821000,-92.57
12830000,-93.25
12839000,-91.79
12848000,-92.66
12857000,-94.38
12866000,-92.57
12875000,-91.64
12884000,-92.74
12893000,-91.5
12902000,-92.74
12911000,-92.41
12920000,-91.64
12929000,-92.25
12938000,-92.41
12947000,-92.33
12956000,-92.57
12965000,-91.67
12974000,-92.77
12983000,-90.29
12992000,-91.75
13001000,-92.69
13010000,-92.28
13019000,-92.69
13028000,-92.28
13037000,-92.05
13046000,-92.93
13055000,-90.67
13064000,-93.02
13073000,-93.11
13082000,-92.44
13091000,-93.11
13100000,-93.46
13109000,-92.6
13118000,-92.28
13127000,-93.11
13136000,-94.61
13145000,-92.36
13154000,-92.44
13163000,-94.11
13172000,-92.44
13181000,-91.75
13190000,-92.28
13199000,-94.61
13208000,-92.52
13217000,-92.52
13226000,-91.82
13235000,-91.9
13244000,-92.68
13253000,-93.11
13262000,-92.52
13271000,-93.19
13280000,-92.52
13289000,-93.46
13298000,-92.93
13307000,-92.93
13316000,-93.64
13325000,-92.28
13334000,-92.76
13343000,-92.76
13352000,-93.64
13361000,-91.82
13370000,-92.76
13379000,-93.11
13388000,-91.39
13397000,-93.46
13406000,-92.76
13415000,-93.11
13424000,-91.75
13433000,-91.1
13442000,-92.28
13451000,-90.66
13460000,-90.93
13469000,-92.28
13478000,-92.93
13487000,-93.11
13496000,-92.76
13505000,-93.11
13514000,-92.36
13523000,-93.92
13532000,-93.46
13541000,-92.59
13550000,-92.59
13559000,-93.33
13568000,-91.94
13577000,-92.99
13586000,-91.72
13595000,-93.07
13604000,-93.33
13613000,-92.73
13622000,-92.73
13631000,-93.43
13640000,-92.73
13649000,-94.18
13658000,-92.4
13667000,-91.72
13676000,-92.9
13685000,-93.6
13694000,-92.17
13703000,-93.98
13712000,-92.56
13721000,-91.79
13730000,-91.72
13739000,-92.73
13748000,-91.49
13757000,-90.9
13766000,-93.7
13775000,-93.24
13784000,-93.24
13793000,-92.56
13802000,-92.65
13811000,-92.82
13820000,-92.82
13829000,-92.73
13838000,-93.24
13847000,-93.33
13856000,-92.82
13865000,-93.07
13874000,-93.24
13883000,-94.37
13892000,-93.6
13901000,-92.98
13910000,-93.07
13919000,-94.57
13928000,-92.73
13937000,-92.24
13946000,-93.42
13955000,-92.73
13964000,-92.65
13973000,-91.14
13982000,-91.49
13991000,-93.15
14000000,-93.6
14009000,-93.7
14018000,-92.48
14027000,-93.33
14036000,-93.33
14045000,-91.71
14054000,-92.32
14063000,-93.6
14072000,-93.15
14081000,-92.73
14090000,-93.07
14099000,-92.73
14108000,-92.56
14117000,-92.4
14126000,-93.42
14135000,-92.98
14144000,-93.33
14153000,-92.78
14162000,-93.12
14171000,-90.09
14180000,-92.37
14189000,-92.37
14198000,-91.39
14207000,-93.04
14216000,-92.86
14225000,-89.04
14234000,-92.78
14243000,-93.66
14252000,-90.86
14261000,-91.83
14270000,-92.05
14279000,-92.37
14288000,-89.49
14297000,-93.21
14306000,-92.95
14315000,-91.98
14324000,-94.24
14333000,-93.21
14342000,-93.39
14351000,-91.6
14360000,-92.05
14369000,-92.69
14378000,-93.95
14387000,-91.6
14396000,-92.37
14405000,-93.04
14414000,-93.2
14423000,-92.61
14432000,-92.53
14441000,-93.66
14450000,-94.14
14459000,-92.95
14468000,-91.39
14477000,-93.39
14486000,-92.13
14495000,-93.95
14504000,-92.53
14513000,-93.12
14522000,-93.04
14531000,-92.37
14540000,-93.2
14549000,-92.52
14558000,-94.14
14567000,-91.03
14576000,-91.39
14585000,-93.48
14594000,-93.85
14603000,-92.52
14612000,-92.44
14621000,-91.68
14630000,-93.48
14639000,-92.44
14648000,-94.53
14657000,-92.95
14666000,-91.9
14675000,-92.95
14684000,-93.66
14693000,-92.13
14702000,-92.36
14711000,-93.48
14720000,-91.98
14729000,-92.44
14738000,-92.61
14747000,-93.45
14756000,-92.58
14765000,-92.04
14774000,-91.38
14783000,-92.51
14792000,-92.51
14801000,-92.75
14810000,-91.89
14819000,-92.92
14828000,-92.43
14837000,-91.66
14846000,-93.01
14855000,-92.19
14864000,-94.1
14873000,-93.1
14882000,-93.17
14891000,-93.81
14900000,-92.11
14909000,-92.92
14918000,-93.45
14927000,-93.01
14936000,-92.19
14945000,-91.45
14954000,-93.09
14963000,-92.27
14972000,-90.15
14981000,-87.07
14990000,-74.12
14999000,-52.43
15008000,-69.26
15017000,-83.64
15026000,-90.78
15035000,-92.58
15044000,-92.42
15053000,-91.96
15062000,-94
15071000,-91.66
15080000,-91.96
15089000,-93.45
15098000,-93.17
15107000,-93.53
15116000,-92.42
15125000,-92.92
15134000,-91.66
15143000,-92.58
15152000,-92.18
15161000,-92.92
15170000,-93.81
15179000,-93.72
15188000,-91.88
15197000,-92.26
15206000,-90.78
15215000,-91.09
15224000,-92.75
15233000,-92.75
15242000,-93.09
15251000,-92.75
15260000,-93.17
15269000,-91.44
15278000,-94
15287000,-92.1
15296000,-92.34
15305000,-92.1
15314000,-92.03
15323000,-92.75
15332000,-91.95
15341000,-92.18
15350000,-91.95
15359000,-93.09
15368000,-91.02
15377000,-92.42
15386000,-93.9
15395000,-93.53
15404000,-92.58
15413000,-94.1
15422000,-91.95
15431000,-91.65
15440000,-93.09
15449000,-92.1
15458000,-91.95
15467000,-92.58
15476000,-92.34
15485000,-93.26
15494000,-93.17
15503000,-93.62
15512000,-94
15521000,-93.44
15530000,-92.26
15539000,-93.8
15548000,-93.26
15557000,-92.42
15566000,-94.29
15575000,-90.91
15584000,-93.8
15593000,-92.1
15602000,-90.52
15611000,-92.91
15620000,-91.09
15629000,-91.95
15638000,-94
15647000,-91.73
15656000,-92.83
15665000,-93
15674000,-94
15683000,-93.09
15692000,-92.58
15701000,-92.83
15710000,-92.1
15719000,-93.26
15728000,-93.09
15737000,-91.23
15746000,-91.23
15755000,-93.44
15764000,-92.58
15773000,-92.58
15782000,-92.5
15791000,-91.51
15800000,-90.64
15809000,-92.58
15818000,-92.66
15827000,-90.39
15836000,-92.58
15845000,-91.37
15854000,-92.58
15863000,-93.17
15872000,-92.34
15881000,-94
15890000,-91.37
15899000,-92.66
15908000,-93.25
15917000,-93.62
15926000,-91.8
15935000,-92.42
15944000,-92.71
15953000,-93.22
15962000,-93.22
15971000,-93.68
15980000,-92.8
15989000,-93.87
15998000,-93.68
16007000,-92.31
16016000,-91.92
16025000,-91.92
16034000,-94.25
16043000,-93.06
16052000,-94.06
16061000,-93.41
16070000,-93.41
16079000,-91.26
16088000,-91.26
16097000,-92.88
16106000,-93.41
16115000,-93.68
16124000,-92.23
16133000,-91.77
16142000,-92.23
16151000,-93.13
16160000,-92.3
16169000,-92.07
16178000,-92.38
16187000,-92.71
16196000,-92.54
16205000,-93.31
16214000,-93.49
16223000,-93.41
16232000,-93.77
16241000,-93.77
16250000,-90.74
16259000,-92.88
16268000,-91.92
16277000,-92.07
16286000,-93.22
16295000,-92.22
16304000,-91.92
16313000,-92.54
16322000,-92.54
16331000,-92.71
16340000,-93.05
16349000,-93.31
16358000,-92.88
16367000,-92.63
16376000,-92.88
16385000,-94.06
16394000,-92.06
16403000,-93.86
16412000,-91.69
16421000,-90.87
16430000,-92.38
16439000,-92.88
16448000,-92.46
16457000,-92.38
16466000,-92.22
16475000,-92.88
16484000,-91.91
16493000,-93.68
16502000,-92.38
16511000,-91.33
16520000,-92.96
16529000,-91.64
16538000,-91.64
16547000,-91.64
16556000,-93.8
16565000,-93.99
16574000,-92.74
16583000,-93.25
16592000,-92.99
16601000,-91.87
16610000,-93.34
16619000,-93.71
16628000,-92.57
16637000,-94.09
